HR4000_03_08_2023_13h58min08s spectrum
Wavelength [nm] // Intensity [u.a.] 
194.93414 780.0
195.93414 768.0
196.93414 759.0
197.93414 768.0
198.93414 791.0
199.93414 792.0
200.93414 793.0
201.93414 792.0
202.93414 796.0
203.93414 805.0
204.93414 801.0
205.93414 805.0
206.93414 797.0
207.93414 795.0
208.93414 793.0
209.93414 806.0
210.93414 802.0
211.93414 793.0
212.93414 799.0
213.93414 801.0
214.93414 801.0
215.93414 795.0
216.93414 802.0
217.93414 792.0
218.93414 811.0
219.93414 807.0
220.93414 823.0
221.93414 804.0
222.93414 805.0
223.93414 793.0
224.93414 795.0
225.93414 791.0
226.93414 808.0
227.93414 809.0
228.93414 787.0
229.93414 806.0
230.93414 811.0
231.93414 804.0
232.93414 795.0
233.93414 808.0
234.93414 803.0
235.93414 803.0
236.93414 801.0
237.93414 807.0
238.93414 803.0
239.93414 810.0
240.93414 818.0
241.93414 815.0
242.93414 793.0
243.93414 816.0
244.93414 791.0
245.93414 827.0
246.93414 788.0
247.93414 802.0
248.93414 809.0
249.93414 801.0
250.93414 812.0
251.93414 804.0
252.93414 794.0
253.93414 795.0
254.93414 800.0
255.93414 796.0
256.93414 814.0
257.93414 802.0
258.93414 794.0
259.93414 805.0
260.93414 797.0
261.93414 812.0
262.93414 818.0
263.93414 815.0
264.93414 801.0
265.93414 808.0
266.93414 807.0
267.93414 806.0
268.93414 804.0
269.93414 786.0
270.93414 805.0
271.93414 798.0
272.93414 796.0
273.93414 807.0
274.93414 798.0
275.93414 804.0
276.93414 793.0
277.93414 802.0
278.93414 807.0
279.93414 799.0
280.93414 790.0
281.93414 796.0
282.93414 801.0
283.93414 791.0
284.93414 801.0
285.93414 793.0
286.93414 809.0
287.93414 807.0
288.93414 803.0
289.93414 811.0
290.93414 794.0
291.93414 805.0
292.93414 780.0
293.93414 788.0
294.93414 818.0
295.93414 800.0
296.93414 802.0
297.93414 795.0
298.93414 809.0
299.93414 814.0
300.93414 815.0
301.93414 797.0
302.93414 802.0
303.93414 805.0
304.93414 809.0
305.93414 798.0
306.93414 817.0
307.93414 813.0
308.93414 807.0
309.93414 780.0
310.93414 803.0
311.93414 804.0
312.93414 794.0
313.93414 799.0
314.93414 824.0
315.93414 813.0
316.93414 810.0
317.93414 793.0
318.93414 802.0
319.93414 804.0
320.93414 806.0
321.93414 794.0
322.93414 807.0
323.93414 804.0
324.93414 807.0
325.93414 811.0
326.93414 810.0
327.93414 806.0
328.93414 804.0
329.93414 814.0
330.93414 821.0
331.93414 798.0
332.93414 795.0
333.93414 787.0
334.93414 796.0
335.93414 789.0
336.93414 785.0
337.93414 805.0
338.93414 815.0
339.93414 782.0
340.93414 800.0
341.93414 803.0
342.93414 801.0
343.93414 810.0
344.93414 811.0
345.93414 796.0
346.93414 803.0
347.93414 816.0
348.93414 801.0
349.93414 797.0
350.93414 799.0
351.93414 824.0
352.93414 794.0
353.93414 807.0
354.93414 788.0
355.93414 801.0
356.93414 790.0
357.93414 783.0
358.93414 809.0
359.93414 814.0
360.93414 809.0
361.93414 801.0
362.93414 802.0
363.93414 801.0
364.93414 803.0
365.93414 806.0
366.93414 801.0
367.93414 789.0
368.93414 793.0
369.93414 792.0
370.93414 810.0
371.93414 797.0
372.93414 804.0
373.93414 809.0
374.93414 809.0
375.93414 827.0
376.93414 793.0
377.93414 804.0
378.93414 812.0
379.93414 812.0
380.93414 800.0
381.93414 801.0
382.93414 811.0
383.93414 810.0
384.93414 804.0
385.93414 796.0
386.93414 796.0
387.93414 816.0
388.93414 813.0
389.93414 800.0
390.93414 793.0
391.93414 803.0
392.93414 806.0
393.93414 801.0
394.93414 792.0
395.93414 809.0
396.93414 793.0
397.93414 796.0
398.93414 804.0
399.93414 802.0
400.93414 807.0
401.93414 819.0
402.93414 804.0
403.93414 804.0
404.93414 805.0
405.93414 808.0
406.93414 803.0
407.93414 809.0
408.93414 789.0
409.93414 802.0
410.93414 798.0
411.93414 808.0
412.93414 800.0
413.93414 797.0
414.93414 799.0
415.93414 814.0
416.93414 789.0
417.93414 792.0
418.93414 804.0
419.93414 794.0
420.93414 804.0
421.93414 793.0
422.93414 788.0
423.93414 790.0
424.93414 795.0
425.93414 794.0
426.93414 794.0
427.93414 798.0
428.93414 810.0
429.93414 805.0
430.93414 816.0
431.93414 796.0
432.93414 804.0
433.93414 808.0
434.93414 800.0
435.93414 808.0
436.93414 809.0
437.93414 810.0
438.93414 810.0
439.93414 796.0
440.93414 800.0
441.93414 800.0
442.93414 809.0
443.93414 791.0
444.93414 806.0
445.93414 803.0
446.93414 808.0
447.93414 792.0
448.93414 793.0
449.93414 801.0
450.93414 799.0
451.93414 809.0
452.93414 806.0
453.93414 804.0
454.93414 790.0
455.93414 796.0
456.93414 797.0
457.93414 808.0
458.93414 792.0
459.93414 803.0
460.93414 822.0
461.93414 802.0
462.93414 808.0
463.93414 797.0
464.93414 809.0
465.93414 809.0
466.93414 800.0
467.93414 798.0
468.93414 773.0
469.93414 790.0
470.93414 803.0
471.93414 795.0
472.93414 807.0
473.93414 803.0
474.93414 780.0
475.93414 804.0
476.93414 810.0
477.93414 805.0
478.93414 796.0
479.93414 806.0
480.93414 805.0
481.93414 793.0
482.93414 810.0
483.93414 804.0
484.93414 803.0
485.93414 797.0
486.93414 799.0
487.93414 809.0
488.93414 802.0
489.93414 776.0
490.93414 810.0
491.93414 791.0
492.93414 789.0
493.93414 802.0
494.93414 802.0
495.93414 815.0
496.93414 806.0
497.93414 797.0
498.93414 800.0
499.93414 797.0
500.93414 791.0
501.93414 796.0
502.93414 810.0
503.93414 801.0
504.93414 807.0
505.93414 788.0
506.93414 797.0
507.93414 793.0
508.93414 790.0
509.93414 814.0
510.93414 819.0
511.93414 813.0
512.9341400000001 808.0
513.9341400000001 795.0
514.9341400000001 805.0
515.9341400000001 818.0
516.9341400000001 802.0
517.9341400000001 801.0
518.9341400000001 795.0
519.9341400000001 805.0
520.9341400000001 803.0
521.9341400000001 814.0
522.9341400000001 796.0
523.9341400000001 808.0
524.9341400000001 802.0
525.9341400000001 795.0
526.9341400000001 781.0
527.9341400000001 806.0
528.9341400000001 809.0
529.9341400000001 805.0
530.9341400000001 800.0
531.9341400000001 790.0
532.9341400000001 794.0
533.9341400000001 793.0
534.9341400000001 804.0
535.9341400000001 796.0
536.9341400000001 805.0
537.9341400000001 789.0
538.9341400000001 791.0
539.9341400000001 791.0
540.9341400000001 796.0
541.9341400000001 791.0
542.9341400000001 792.0
543.9341400000001 796.0
544.9341400000001 794.0
545.9341400000001 804.0
546.9341400000001 800.0
547.9341400000001 796.0
548.9341400000001 798.0
549.9341400000001 799.0
550.9341400000001 794.0
551.9341400000001 800.0
552.9341400000001 807.0
553.9341400000001 801.0
554.9341400000001 801.0
555.9341400000001 799.0
556.9341400000001 801.0
557.9341400000001 806.0
558.9341400000001 794.0
559.9341400000001 791.0
560.9341400000001 793.0
561.9341400000001 787.0
562.9341400000001 812.0
563.9341400000001 819.0
564.9341400000001 800.0
565.9341400000001 807.0
566.9341400000001 796.0
567.9341400000001 793.0
568.9341400000001 796.0
569.9341400000001 808.0
570.9341400000001 810.0
571.9341400000001 807.0
572.9341400000001 817.0
573.9341400000001 799.0
574.9341400000001 792.0
575.9341400000001 808.0
576.9341400000001 798.0
577.9341400000001 804.0
578.9341400000001 790.0
579.9341400000001 796.0
580.9341400000001 815.0
581.9341400000001 805.0
582.9341400000001 804.0
583.9341400000001 793.0
584.9341400000001 786.0
585.9341400000001 791.0
586.9341400000001 807.0
587.9341400000001 800.0
588.9341400000001 793.0
589.9341400000001 806.0
590.9341400000001 788.0
591.9341400000001 815.0
592.9341400000001 793.0
593.9341400000001 794.0
594.9341400000001 814.0
595.9341400000001 795.0
596.9341400000001 801.0
597.9341400000001 809.0
598.9341400000001 803.0
599.9341400000001 790.0
600.9341400000001 803.0
601.9341400000001 792.0
602.9341400000001 798.0
603.9341400000001 801.0
604.9341400000001 788.0
605.9341400000001 807.0
606.9341400000001 809.0
607.9341400000001 807.0
608.9341400000001 806.0
609.9341400000001 802.0
610.9341400000001 801.0
611.9341400000001 790.0
612.9341400000001 805.0
613.9341400000001 791.0
614.9341400000001 791.0
615.9341400000001 800.0
616.9341400000001 801.0
617.9341400000001 813.0
618.9341400000001 798.0
619.9341400000001 801.0
620.9341400000001 800.0
621.9341400000001 802.0
622.9341400000001 793.0
623.9341400000001 809.0
624.9341400000001 812.0
625.9341400000001 811.0
626.9341400000001 804.0
627.9341400000001 802.0
628.9341400000001 801.0
629.9341400000001 802.0
630.9341400000001 808.0
631.9341400000001 821.0
632.9341400000001 806.0
633.9341400000001 792.0
634.9341400000001 804.0
635.9341400000001 805.0
636.9341400000001 802.0
637.9341400000001 804.0
638.9341400000001 807.0
639.9341400000001 796.0
640.9341400000001 809.0
641.9341400000001 808.0
642.9341400000001 794.0
643.9341400000001 800.0
644.9341400000001 804.0
645.9341400000001 796.0
646.9341400000001 802.0
647.9341400000001 806.0
648.9341400000001 795.0
649.9341400000001 783.0
650.9341400000001 804.0
651.9341400000001 789.0
652.9341400000001 803.0
653.9341400000001 800.0
654.9341400000001 810.0
655.9341400000001 793.0
656.9341400000001 799.0
657.9341400000001 809.0
658.9341400000001 789.0
659.9341400000001 795.0
660.9341400000001 793.0
661.9341400000001 807.0
662.9341400000001 792.0
663.9341400000001 809.0
664.9341400000001 806.0
665.9341400000001 806.0
666.9341400000001 805.0
667.9341400000001 794.0
668.9341400000001 802.0
669.9341400000001 791.0
670.9341400000001 787.0
671.9341400000001 782.0
672.9341400000001 810.0
673.9341400000001 791.0
674.9341400000001 797.0
675.9341400000001 805.0
676.9341400000001 796.0
677.9341400000001 797.0
678.9341400000001 801.0
679.9341400000001 813.0
680.9341400000001 801.0
681.9341400000001 793.0
682.9341400000001 801.0
683.9341400000001 798.0
684.9341400000001 797.0
685.9341400000001 817.0
686.9341400000001 812.0
687.9341400000001 806.0
688.9341400000001 804.0
689.9341400000001 785.0
690.9341400000001 817.0
691.9341400000001 782.0
692.9341400000001 811.0
693.9341400000001 800.0
694.9341400000001 790.0
695.9341400000001 808.0
696.9341400000001 816.0
697.9341400000001 789.0
698.9341400000001 795.0
699.9341400000001 816.0
700.9341400000001 810.0
701.9341400000001 816.0
702.9341400000001 802.0
703.9341400000001 792.0
704.9341400000001 805.0
705.9341400000001 803.0
706.9341400000001 806.0
707.9341400000001 811.0
708.9341400000001 799.0
709.9341400000001 796.0
710.9341400000001 806.0
711.9341400000001 808.0
712.9341400000001 817.0
713.9341400000001 811.0
714.9341400000001 801.0
715.9341400000001 802.0
716.9341400000001 801.0
717.9341400000001 798.0
718.9341400000001 798.0
719.9341400000001 812.0
720.9341400000001 796.0
721.9341400000001 801.0
722.9341400000001 799.0
723.9341400000001 798.0
724.9341400000001 803.0
725.9341400000001 799.0
726.9341400000001 808.0
727.9341400000001 797.0
728.9341400000001 784.0
729.9341400000001 801.0
730.9341400000001 795.0
731.9341400000001 783.0
732.9341400000001 803.0
733.9341400000001 811.0
734.9341400000001 817.0
735.9341400000001 785.0
736.9341400000001 813.0
737.9341400000001 803.0
738.9341400000001 807.0
739.9341400000001 803.0
740.9341400000001 801.0
741.9341400000001 785.0
742.9341400000001 802.0
743.9341400000001 803.0
744.9341400000001 787.0
745.9341400000001 792.0
746.9341400000001 796.0
747.9341400000001 798.0
748.9341400000001 809.0
749.9341400000001 808.0
750.9341400000001 799.0
751.9341400000001 788.0
752.9341400000001 804.0
753.9341400000001 812.0
754.9341400000001 806.0
755.9341400000001 821.0
756.9341400000001 809.0
757.9341400000001 815.0
758.9341400000001 821.0
759.9341400000001 804.0
760.9341400000001 804.0
761.9341400000001 805.0
762.9341400000001 804.0
763.9341400000001 797.0
764.9341400000001 803.0
765.9341400000001 814.0
766.9341400000001 803.0
767.9341400000001 805.0
768.9341400000001 798.0
769.9341400000001 803.0
770.9341400000001 800.0
771.9341400000001 787.0
772.9341400000001 797.0
773.9341400000001 812.0
774.9341400000001 808.0
775.9341400000001 817.0
776.9341400000001 792.0
777.9341400000001 809.0
778.9341400000001 802.0
779.9341400000001 809.0
780.9341400000001 799.0
781.9341400000001 786.0
782.9341400000001 803.0
783.9341400000001 807.0
784.9341400000001 811.0
785.9341400000001 833.0
786.9341400000001 819.0
787.9341400000001 808.0
788.9341400000001 813.0
789.9341400000001 796.0
790.9341400000001 785.0
791.9341400000001 799.0
792.9341400000001 800.0
793.9341400000001 800.0
794.9341400000001 810.0
795.9341400000001 795.0
796.9341400000001 802.0
797.9341400000001 819.0
798.9341400000001 803.0
799.9341400000001 806.0
800.9341400000001 798.0
801.9341400000001 808.0
802.9341400000001 784.0
803.9341400000001 802.0
804.9341400000001 791.0
805.9341400000001 801.0
806.9341400000001 799.0
807.9341400000001 806.0
808.9341400000001 803.0
809.9341400000001 793.0
810.9341400000001 788.0
811.9341400000001 809.0
812.9341400000001 786.0
813.9341400000001 786.0
814.9341400000001 818.0
815.9341400000001 790.0
816.9341400000001 811.0
817.9341400000001 814.0
818.9341400000001 811.0
819.9341400000001 799.0
820.9341400000001 805.0
821.9341400000001 801.0
822.9341400000001 790.0
823.9341400000001 803.0
824.9341400000001 802.0
825.9341400000001 808.0
826.9341400000001 804.0
827.9341400000001 803.0
828.9341400000001 804.0
829.9341400000001 803.0
830.9341400000001 788.0
831.9341400000001 805.0
832.9341400000001 806.0
833.9341400000001 805.0
834.9341400000001 795.0
835.9341400000001 808.0
836.9341400000001 815.0
837.9341400000001 809.0
838.9341400000001 814.0
839.9341400000001 813.0
840.9341400000001 791.0
841.9341400000001 792.0
842.9341400000001 791.0
843.9341400000001 797.0
844.9341400000001 799.0
845.9341400000001 796.0
846.9341400000001 803.0
847.9341400000001 804.0
848.9341400000001 797.0
849.9341400000001 805.0
850.9341400000001 803.0
851.9341400000001 815.0
852.9341400000001 798.0
853.9341400000001 793.0
854.9341400000001 804.0
855.9341400000001 792.0
856.9341400000001 800.0
857.9341400000001 806.0
858.9341400000001 805.0
859.9341400000001 802.0
860.9341400000001 814.0
861.9341400000001 787.0
862.9341400000001 800.0
863.9341400000001 815.0
864.9341400000001 810.0
865.9341400000001 788.0
866.9341400000001 808.0
867.9341400000001 805.0
868.9341400000001 811.0
869.9341400000001 809.0
870.9341400000001 805.0
871.9341400000001 801.0
872.9341400000001 788.0
873.9341400000001 795.0
874.9341400000001 787.0
875.9341400000001 804.0
876.9341400000001 805.0
877.9341400000001 803.0
878.9341400000001 818.0
879.9341400000001 792.0
880.9341400000001 807.0
881.9341400000001 808.0
882.9341400000001 800.0
883.9341400000001 786.0
884.9341400000001 799.0
885.9341400000001 788.0
886.9341400000001 820.0
887.9341400000001 813.0
888.9341400000001 802.0
889.9341400000001 808.0
890.9341400000001 792.0
891.9341400000001 798.0
892.9341400000001 796.0
893.9341400000001 813.0
894.9341400000001 816.0
895.9341400000001 802.0
896.9341400000001 808.0
897.9341400000001 803.0
898.9341400000001 792.0
899.9341400000001 812.0
900.9341400000001 804.0
901.9341400000001 805.0
902.9341400000001 803.0
903.9341400000001 806.0
904.9341400000001 811.0
905.9341400000001 791.0
906.9341400000001 802.0
907.9341400000001 807.0
908.9341400000001 804.0
909.9341400000001 807.0
910.9341400000001 787.0
911.9341400000001 806.0
912.9341400000001 790.0
913.9341400000001 797.0
914.9341400000001 798.0
915.9341400000001 814.0
916.9341400000001 811.0
917.9341400000001 807.0
918.9341400000001 803.0
919.9341400000001 787.0
920.9341400000001 796.0
921.9341400000001 792.0
922.9341400000001 798.0
923.9341400000001 801.0
924.9341400000001 800.0
925.9341400000001 807.0
926.9341400000001 817.0
927.9341400000001 791.0
928.9341400000001 790.0
929.9341400000001 808.0
930.9341400000001 806.0
931.9341400000001 799.0
932.9341400000001 807.0
933.9341400000001 793.0
934.9341400000001 803.0
935.9341400000001 793.0
936.9341400000001 794.0
937.9341400000001 791.0
938.9341400000001 801.0
939.9341400000001 803.0
940.9341400000001 809.0
941.9341400000001 810.0
942.9341400000001 804.0
943.9341400000001 803.0
944.9341400000001 800.0
945.9341400000001 798.0
946.9341400000001 797.0
947.9341400000001 797.0
948.9341400000001 807.0
949.9341400000001 818.0
950.9341400000001 803.0
951.9341400000001 797.0
952.9341400000001 803.0
953.9341400000001 792.0
954.9341400000001 801.0
955.9341400000001 794.0
956.9341400000001 791.0
957.9341400000001 789.0
958.9341400000001 800.0
959.9341400000001 787.0
960.9341400000001 811.0
961.9341400000001 810.0
962.9341400000001 815.0
963.9341400000001 810.0
964.9341400000001 779.0
965.9341400000001 797.0
966.9341400000001 801.0
967.9341400000001 804.0
968.9341400000001 784.0
969.9341400000001 803.0
970.9341400000001 803.0
971.9341400000001 785.0
972.9341400000001 804.0
973.9341400000001 801.0
974.9341400000001 806.0
975.9341400000001 815.0
976.9341400000001 803.0
977.9341400000001 809.0
978.9341400000001 818.0
979.9341400000001 791.0
980.9341400000001 796.0
981.9341400000001 799.0
982.9341400000001 810.0
983.9341400000001 814.0
984.9341400000001 816.0
985.9341400000001 797.0
986.9341400000001 800.0
987.9341400000001 816.0
988.9341400000001 805.0
989.9341400000001 802.0
990.9341400000001 794.0
991.9341400000001 805.0
992.9341400000001 798.0
993.9341400000001 799.0
994.9341400000001 802.0
995.9341400000001 802.0
996.9341400000001 807.0
997.9341400000001 798.0
998.9341400000001 800.0
999.9341400000001 789.0
1000.9341400000001 809.0
1001.9341400000001 824.0
1002.9341400000001 791.0
1003.9341400000001 794.0
1004.9341400000001 798.0
1005.9341400000001 805.0
1006.9341400000001 808.0
1007.9341400000001 804.0
1008.9341400000001 821.0
1009.9341400000001 803.0
1010.9341400000001 792.0
1011.9341400000001 808.0
1012.9341400000001 813.0
1013.9341400000001 809.0
1014.9341400000001 789.0
1015.9341400000001 817.0
1016.9341400000001 790.0
1017.9341400000001 800.0
1018.9341400000001 810.0
1019.9341400000001 809.0
1020.9341400000001 799.0
1021.9341400000001 799.0
1022.9341400000001 795.0
1023.9341400000001 819.0
1024.93414 820.0
1025.93414 793.0
1026.93414 797.0
1027.93414 800.0
1028.93414 808.0
1029.93414 796.0
1030.93414 803.0
1031.93414 809.0
1032.93414 792.0
1033.93414 803.0
1034.93414 804.0
1035.93414 808.0
1036.93414 813.0
1037.93414 818.0
1038.93414 797.0
1039.93414 777.0
1040.93414 788.0
1041.93414 812.0
1042.93414 814.0
1043.93414 792.0
1044.93414 816.0
1045.93414 787.0
1046.93414 793.0
1047.93414 806.0
1048.93414 802.0
1049.93414 792.0
1050.93414 811.0
1051.93414 804.0
1052.93414 804.0
1053.93414 805.0
1054.93414 798.0
1055.93414 806.0
1056.93414 813.0
1057.93414 794.0
1058.93414 801.0
1059.93414 804.0
1060.93414 799.0
1061.93414 804.0
1062.93414 809.0
1063.93414 800.0
1064.93414 796.0
1065.93414 798.0
1066.93414 793.0
1067.93414 806.0
1068.93414 799.0
1069.93414 796.0
1070.93414 794.0
1071.93414 803.0
1072.93414 799.0
1073.93414 810.0
1074.93414 817.0
1075.93414 802.0
1076.93414 803.0
1077.93414 801.0
1078.93414 797.0
1079.93414 814.0
1080.93414 801.0
1081.93414 820.0
1082.93414 810.0
1083.93414 809.0
1084.93414 806.0
1085.93414 781.0
1086.93414 812.0
1087.93414 800.0
1088.93414 802.0
1089.93414 792.0
1090.93414 795.0
1091.93414 798.0
1092.93414 782.0
1093.93414 820.0
1094.93414 796.0
1095.93414 806.0
1096.93414 799.0
1097.93414 809.0
1098.93414 817.0
1099.93414 806.0
1100.93414 810.0
1101.93414 817.0
1102.93414 814.0
1103.93414 800.0
1104.93414 803.0
1105.93414 809.0
1106.93414 804.0
1107.93414 796.0
1108.93414 816.0
1109.93414 810.0
1110.93414 809.0
1111.93414 802.0
1112.93414 805.0
1113.93414 805.0
1114.93414 809.0
1115.93414 804.0
1116.93414 795.0
1117.93414 806.0
1118.93414 793.0
1119.93414 788.0
1120.93414 815.0
1121.93414 794.0
1122.93414 808.0
1123.93414 794.0
1124.93414 801.0
1125.93414 792.0
1126.93414 793.0
1127.93414 804.0
1128.93414 801.0
1129.93414 791.0
1130.93414 800.0
1131.93414 788.0
1132.93414 810.0
1133.93414 785.0
1134.93414 801.0
1135.93414 791.0
1136.93414 793.0
1137.93414 812.0
1138.93414 812.0
1139.93414 797.0
1140.93414 804.0
1141.93414 795.0
1142.93414 803.0
1143.93414 809.0
1144.93414 810.0
1145.93414 813.0
1146.93414 807.0
1147.93414 805.0
1148.93414 809.0
1149.93414 786.0
1150.93414 800.0
1151.93414 817.0
1152.93414 812.0
1153.93414 788.0
1154.93414 817.0
1155.93414 810.0
1156.93414 797.0
1157.93414 801.0
1158.93414 817.0
1159.93414 789.0
1160.93414 811.0
1161.93414 812.0
1162.93414 803.0
1163.93414 807.0
1164.93414 816.0
1165.93414 810.0
1166.93414 800.0
1167.93414 802.0
1168.93414 810.0
1169.93414 805.0
1170.93414 811.0
1171.93414 804.0
1172.93414 796.0
1173.93414 802.0
1174.93414 802.0
1175.93414 827.0
1176.93414 796.0
1177.93414 807.0
1178.93414 820.0
1179.93414 811.0
1180.93414 800.0
1181.93414 796.0
1182.93414 804.0
1183.93414 801.0
1184.93414 805.0
1185.93414 796.0
1186.93414 805.0
1187.93414 791.0
1188.93414 801.0
1189.93414 814.0
1190.93414 814.0
1191.93414 804.0
1192.93414 810.0
1193.93414 789.0
1194.93414 808.0
1195.93414 785.0
1196.93414 789.0
1197.93414 802.0
1198.93414 806.0
1199.93414 810.0
1200.93414 808.0
1201.93414 801.0
1202.93414 816.0
1203.93414 809.0
1204.93414 805.0
1205.93414 805.0
1206.93414 806.0
1207.93414 791.0
1208.93414 791.0
1209.93414 798.0
1210.93414 802.0
1211.93414 797.0
1212.93414 805.0
1213.93414 805.0
1214.93414 810.0
1215.93414 805.0
1216.93414 793.0
1217.93414 803.0
1218.93414 813.0
1219.93414 808.0
1220.93414 790.0
1221.93414 790.0
1222.93414 812.0
1223.93414 812.0
1224.93414 797.0
1225.93414 804.0
1226.93414 798.0
1227.93414 818.0
1228.93414 796.0
1229.93414 805.0
1230.93414 817.0
1231.93414 805.0
1232.93414 804.0
1233.93414 798.0
1234.93414 791.0
1235.93414 795.0
1236.93414 810.0
1237.93414 801.0
1238.93414 806.0
1239.93414 806.0
1240.93414 802.0
1241.93414 814.0
1242.93414 804.0
1243.93414 797.0
1244.93414 797.0
1245.93414 816.0
1246.93414 799.0
1247.93414 811.0
1248.93414 801.0
1249.93414 796.0
1250.93414 796.0
1251.93414 789.0
1252.93414 815.0
1253.93414 804.0
1254.93414 811.0
1255.93414 814.0
1256.93414 793.0
1257.93414 804.0
1258.93414 804.0
1259.93414 792.0
1260.93414 792.0
1261.93414 797.0
1262.93414 796.0
1263.93414 814.0
1264.93414 795.0
1265.93414 797.0
1266.93414 800.0
1267.93414 809.0
1268.93414 812.0
1269.93414 819.0
1270.93414 802.0
1271.93414 808.0
1272.93414 806.0
1273.93414 801.0
1274.93414 806.0
1275.93414 809.0
1276.93414 818.0
1277.93414 812.0
1278.93414 821.0
1279.93414 808.0
1280.93414 808.0
1281.93414 794.0
1282.93414 802.0
1283.93414 796.0
1284.93414 799.0
1285.93414 806.0
1286.93414 812.0
1287.93414 796.0
1288.93414 798.0
1289.93414 792.0
1290.93414 804.0
1291.93414 809.0
1292.93414 810.0
1293.93414 793.0
1294.93414 794.0
1295.93414 788.0
1296.93414 785.0
1297.93414 805.0
1298.93414 785.0
1299.93414 803.0
1300.93414 784.0
1301.93414 795.0
1302.93414 796.0
1303.93414 797.0
1304.93414 803.0
1305.93414 816.0
1306.93414 806.0
1307.93414 802.0
1308.93414 799.0
1309.93414 784.0
1310.93414 802.0
1311.93414 795.0
1312.93414 812.0
1313.93414 795.0
1314.93414 806.0
1315.93414 797.0
1316.93414 804.0
1317.93414 802.0
1318.93414 805.0
1319.93414 796.0
1320.93414 808.0
1321.93414 814.0
1322.93414 805.0
1323.93414 805.0
1324.93414 810.0
1325.93414 806.0
1326.93414 825.0
1327.93414 804.0
1328.93414 811.0
1329.93414 812.0
1330.93414 804.0
1331.93414 814.0
1332.93414 803.0
1333.93414 820.0
1334.93414 806.0
1335.93414 808.0
1336.93414 804.0
1337.93414 798.0
1338.93414 809.0
1339.93414 800.0
1340.93414 802.0
1341.93414 812.0
1342.93414 796.0
1343.93414 804.0
1344.93414 809.0
1345.93414 811.0
1346.93414 800.0
1347.93414 795.0
1348.93414 809.0
1349.93414 812.0
1350.93414 800.0
1351.93414 806.0
1352.93414 805.0
1353.93414 811.0
1354.93414 814.0
1355.93414 798.0
1356.93414 796.0
1357.93414 789.0
1358.93414 789.0
1359.93414 804.0
1360.93414 801.0
1361.93414 796.0
1362.93414 793.0
1363.93414 798.0
1364.93414 788.0
1365.93414 803.0
1366.93414 805.0
1367.93414 804.0
1368.93414 802.0
1369.93414 803.0
1370.93414 805.0
1371.93414 795.0
1372.93414 799.0
1373.93414 795.0
1374.93414 796.0
1375.93414 799.0
1376.93414 797.0
1377.93414 816.0
1378.93414 809.0
1379.93414 810.0
1380.93414 815.0
1381.93414 816.0
1382.93414 802.0
1383.93414 802.0
1384.93414 798.0
1385.93414 796.0
1386.93414 796.0
1387.93414 805.0
1388.93414 790.0
1389.93414 799.0
1390.93414 803.0
1391.93414 804.0
1392.93414 809.0
1393.93414 803.0
1394.93414 806.0
1395.93414 811.0
1396.93414 813.0
1397.93414 805.0
1398.93414 798.0
1399.93414 785.0
1400.93414 824.0
1401.93414 810.0
1402.93414 805.0
1403.93414 806.0
1404.93414 788.0
1405.93414 801.0
1406.93414 802.0
1407.93414 794.0
1408.93414 810.0
1409.93414 813.0
1410.93414 811.0
1411.93414 803.0
1412.93414 788.0
1413.93414 806.0
1414.93414 802.0
1415.93414 807.0
1416.93414 802.0
1417.93414 801.0
1418.93414 806.0
1419.93414 796.0
1420.93414 823.0
1421.93414 804.0
1422.93414 802.0
1423.93414 806.0
1424.93414 801.0
1425.93414 808.0
1426.93414 797.0
1427.93414 807.0
1428.93414 796.0
1429.93414 799.0
1430.93414 802.0
1431.93414 791.0
1432.93414 792.0
1433.93414 791.0
1434.93414 809.0
1435.93414 810.0
1436.93414 806.0
1437.93414 784.0
1438.93414 806.0
1439.93414 801.0
1440.93414 784.0
1441.93414 792.0
1442.93414 800.0
1443.93414 791.0
1444.93414 801.0
1445.93414 797.0
1446.93414 808.0
1447.93414 795.0
1448.93414 799.0
1449.93414 789.0
1450.93414 790.0
1451.93414 797.0
1452.93414 819.0
1453.93414 797.0
1454.93414 786.0
1455.93414 808.0
1456.93414 806.0
1457.93414 805.0
1458.93414 794.0
1459.93414 797.0
1460.93414 802.0
1461.93414 811.0
1462.93414 804.0
1463.93414 819.0
1464.93414 812.0
1465.93414 805.0
1466.93414 816.0
1467.93414 804.0
1468.93414 824.0
1469.93414 809.0
1470.93414 819.0
1471.93414 816.0
1472.93414 800.0
1473.93414 805.0
1474.93414 798.0
1475.93414 796.0
1476.93414 799.0
1477.93414 802.0
1478.93414 794.0
1479.93414 812.0
1480.93414 791.0
1481.93414 809.0
1482.93414 817.0
1483.93414 804.0
1484.93414 804.0
1485.93414 800.0
1486.93414 806.0
1487.93414 798.0
1488.93414 788.0
1489.93414 799.0
1490.93414 804.0
1491.93414 809.0
1492.93414 795.0
1493.93414 789.0
1494.93414 804.0
1495.93414 802.0
1496.93414 801.0
1497.93414 799.0
1498.93414 798.0
1499.93414 785.0
1500.93414 795.0
1501.93414 804.0
1502.93414 808.0
1503.93414 792.0
1504.93414 809.0
1505.93414 790.0
1506.93414 800.0
1507.93414 788.0
1508.93414 788.0
1509.93414 787.0
1510.93414 809.0
1511.93414 810.0
1512.93414 811.0
1513.93414 808.0
1514.93414 808.0
1515.93414 804.0
1516.93414 809.0
1517.93414 816.0
1518.93414 802.0
1519.93414 810.0
1520.93414 797.0
1521.93414 807.0
1522.93414 801.0
1523.93414 806.0
1524.93414 808.0
1525.93414 801.0
1526.93414 796.0
1527.93414 809.0
1528.93414 786.0
1529.93414 786.0
1530.93414 781.0
1531.93414 793.0
1532.93414 808.0
1533.93414 805.0
1534.93414 802.0
1535.93414 801.0
1536.93414 786.0
1537.93414 816.0
1538.93414 806.0
1539.93414 808.0
1540.93414 803.0
1541.93414 810.0
1542.93414 792.0
1543.93414 801.0
1544.93414 802.0
1545.93414 802.0
1546.93414 814.0
1547.93414 801.0
1548.93414 800.0
1549.93414 795.0
1550.93414 805.0
1551.93414 798.0
1552.93414 793.0
1553.93414 795.0
1554.93414 793.0
1555.93414 803.0
1556.93414 796.0
1557.93414 806.0
1558.93414 795.0
1559.93414 805.0
1560.93414 799.0
1561.93414 805.0
1562.93414 809.0
1563.93414 804.0
1564.93414 794.0
1565.93414 816.0
1566.93414 808.0
1567.93414 801.0
1568.93414 794.0
1569.93414 778.0
1570.93414 805.0
1571.93414 801.0
1572.93414 809.0
1573.93414 800.0
1574.93414 802.0
1575.93414 802.0
1576.93414 807.0
1577.93414 805.0
1578.93414 788.0
1579.93414 810.0
1580.93414 811.0
1581.93414 791.0
1582.93414 804.0
1583.93414 807.0
1584.93414 810.0
1585.93414 800.0
1586.93414 818.0
1587.93414 802.0
1588.93414 800.0
1589.93414 785.0
1590.93414 804.0
1591.93414 812.0
1592.93414 810.0
1593.93414 808.0
1594.93414 796.0
1595.93414 794.0
1596.93414 801.0
1597.93414 798.0
1598.93414 808.0
1599.93414 804.0
1600.93414 799.0
1601.93414 783.0
1602.93414 781.0
1603.93414 818.0
1604.93414 813.0
1605.93414 801.0
1606.93414 797.0
1607.93414 797.0
1608.93414 780.0
1609.93414 803.0
1610.93414 817.0
1611.93414 795.0
1612.93414 807.0
1613.93414 792.0
1614.93414 801.0
1615.93414 802.0
1616.93414 794.0
1617.93414 800.0
1618.93414 803.0
1619.93414 813.0
1620.93414 799.0
1621.93414 808.0
1622.93414 801.0
1623.93414 823.0
1624.93414 818.0
1625.93414 789.0
1626.93414 804.0
1627.93414 810.0
1628.93414 790.0
1629.93414 812.0
1630.93414 798.0
1631.93414 800.0
1632.93414 797.0
1633.93414 791.0
1634.93414 805.0
1635.93414 809.0
1636.93414 800.0
1637.93414 805.0
1638.93414 810.0
1639.93414 792.0
1640.93414 810.0
1641.93414 798.0
1642.93414 813.0
1643.93414 784.0
1644.93414 789.0
1645.93414 793.0
1646.93414 808.0
1647.93414 802.0
1648.93414 798.0
1649.93414 794.0
1650.93414 805.0
1651.93414 799.0
1652.93414 804.0
1653.93414 805.0
1654.93414 798.0
1655.93414 812.0
1656.93414 812.0
1657.93414 809.0
1658.93414 809.0
1659.93414 815.0
1660.93414 796.0
1661.93414 796.0
1662.93414 798.0
1663.93414 797.0
1664.93414 816.0
1665.93414 806.0
1666.93414 806.0
1667.93414 806.0
1668.93414 800.0
1669.93414 818.0
1670.93414 805.0
1671.93414 804.0
1672.93414 803.0
1673.93414 795.0
1674.93414 799.0
1675.93414 797.0
1676.93414 793.0
1677.93414 804.0
1678.93414 813.0
1679.93414 801.0
1680.93414 806.0
1681.93414 792.0
1682.93414 799.0
1683.93414 807.0
1684.93414 815.0
1685.93414 794.0
1686.93414 794.0
1687.93414 798.0
1688.93414 801.0
1689.93414 797.0
1690.93414 809.0
1691.93414 790.0
1692.93414 810.0
1693.93414 812.0
1694.93414 803.0
1695.93414 808.0
1696.93414 799.0
1697.93414 798.0
1698.93414 795.0
1699.93414 818.0
1700.93414 797.0
1701.93414 798.0
1702.93414 812.0
1703.93414 817.0
1704.93414 797.0
1705.93414 810.0
1706.93414 813.0
1707.93414 808.0
1708.93414 796.0
1709.93414 781.0
1710.93414 798.0
1711.93414 788.0
1712.93414 804.0
1713.93414 809.0
1714.93414 808.0
1715.93414 810.0
1716.93414 794.0
1717.93414 796.0
1718.93414 785.0
1719.93414 801.0
1720.93414 801.0
1721.93414 817.0
1722.93414 804.0
1723.93414 817.0
1724.93414 812.0
1725.93414 809.0
1726.93414 809.0
1727.93414 805.0
1728.93414 801.0
1729.93414 811.0
1730.93414 808.0
1731.93414 802.0
1732.93414 804.0
1733.93414 787.0
1734.93414 795.0
1735.93414 810.0
1736.93414 790.0
1737.93414 811.0
1738.93414 807.0
1739.93414 806.0
1740.93414 803.0
1741.93414 805.0
1742.93414 800.0
1743.93414 801.0
1744.93414 787.0
1745.93414 795.0
1746.93414 807.0
1747.93414 793.0
1748.93414 808.0
1749.93414 812.0
1750.93414 809.0
1751.93414 811.0
1752.93414 797.0
1753.93414 803.0
1754.93414 798.0
1755.93414 790.0
1756.93414 809.0
1757.93414 807.0
1758.93414 803.0
1759.93414 793.0
1760.93414 798.0
1761.93414 798.0
1762.93414 806.0
1763.93414 798.0
1764.93414 801.0
1765.93414 804.0
1766.93414 801.0
1767.93414 802.0
1768.93414 808.0
1769.93414 809.0
1770.93414 796.0
1771.93414 794.0
1772.93414 803.0
1773.93414 799.0
1774.93414 796.0
1775.93414 809.0
1776.93414 792.0
1777.93414 795.0
1778.93414 793.0
1779.93414 801.0
1780.93414 811.0
1781.93414 796.0
1782.93414 796.0
1783.93414 804.0
1784.93414 793.0
1785.93414 800.0
1786.93414 811.0
1787.93414 797.0
1788.93414 799.0
1789.93414 796.0
1790.93414 805.0
1791.93414 792.0
1792.93414 819.0
1793.93414 813.0
1794.93414 803.0
1795.93414 803.0
1796.93414 813.0
1797.93414 795.0
1798.93414 800.0
1799.93414 808.0
1800.93414 806.0
1801.93414 805.0
1802.93414 805.0
1803.93414 808.0
1804.93414 803.0
1805.93414 815.0
1806.93414 796.0
1807.93414 809.0
1808.93414 801.0
1809.93414 793.0
1810.93414 805.0
1811.93414 796.0
1812.93414 796.0
1813.93414 808.0
1814.93414 802.0
1815.93414 808.0
1816.93414 804.0
1817.93414 810.0
1818.93414 819.0
1819.93414 807.0
1820.93414 799.0
1821.93414 802.0
1822.93414 824.0
1823.93414 812.0
1824.93414 794.0
1825.93414 803.0
1826.93414 808.0
1827.93414 807.0
1828.93414 814.0
1829.93414 806.0
1830.93414 798.0
1831.93414 804.0
1832.93414 792.0
1833.93414 806.0
1834.93414 801.0
1835.93414 800.0
1836.93414 796.0
1837.93414 803.0
1838.93414 805.0
1839.93414 828.0
1840.93414 822.0
1841.93414 814.0
1842.93414 800.0
1843.93414 812.0
1844.93414 801.0
1845.93414 805.0
1846.93414 807.0
1847.93414 812.0
1848.93414 807.0
1849.93414 810.0
1850.93414 817.0
1851.93414 795.0
1852.93414 794.0
1853.93414 811.0
1854.93414 809.0
1855.93414 820.0
1856.93414 819.0
1857.93414 813.0
1858.93414 801.0
1859.93414 802.0
1860.93414 788.0
1861.93414 817.0
1862.93414 814.0
1863.93414 800.0
1864.93414 814.0
1865.93414 800.0
1866.93414 798.0
1867.93414 790.0
1868.93414 790.0
1869.93414 800.0
1870.93414 794.0
1871.93414 818.0
1872.93414 794.0
1873.93414 801.0
1874.93414 793.0
1875.93414 813.0
1876.93414 797.0
1877.93414 800.0
1878.93414 786.0
1879.93414 804.0
1880.93414 802.0
1881.93414 790.0
1882.93414 788.0
1883.93414 810.0
1884.93414 810.0
1885.93414 799.0
1886.93414 800.0
1887.93414 810.0
1888.93414 801.0
1889.93414 817.0
1890.93414 803.0
1891.93414 802.0
1892.93414 803.0
1893.93414 820.0
1894.93414 810.0
1895.93414 819.0
1896.93414 816.0
1897.93414 812.0
1898.93414 802.0
1899.93414 795.0
1900.93414 795.0
1901.93414 812.0
1902.93414 795.0
1903.93414 794.0
1904.93414 796.0
1905.93414 795.0
1906.93414 802.0
1907.93414 800.0
1908.93414 795.0
1909.93414 796.0
1910.93414 822.0
1911.93414 797.0
1912.93414 805.0
1913.93414 794.0
1914.93414 798.0
1915.93414 807.0
1916.93414 803.0
1917.93414 816.0
1918.93414 795.0
1919.93414 799.0
1920.93414 799.0
1921.93414 809.0
1922.93414 800.0
1923.93414 800.0
1924.93414 804.0
1925.93414 802.0
1926.93414 798.0
1927.93414 805.0
1928.93414 805.0
1929.93414 795.0
1930.93414 804.0
1931.93414 809.0
1932.93414 800.0
1933.93414 806.0
1934.93414 798.0
1935.93414 799.0
1936.93414 806.0
1937.93414 795.0
1938.93414 802.0
1939.93414 796.0
1940.93414 788.0
1941.93414 807.0
1942.93414 806.0
1943.93414 802.0
1944.93414 816.0
1945.93414 810.0
1946.93414 809.0
1947.93414 798.0
1948.93414 805.0
1949.93414 811.0
1950.93414 824.0
1951.93414 805.0
1952.93414 804.0
1953.93414 813.0
1954.93414 801.0
1955.93414 808.0
1956.93414 799.0
1957.93414 802.0
1958.93414 788.0
1959.93414 802.0
1960.93414 797.0
1961.93414 800.0
1962.93414 804.0
1963.93414 790.0
1964.93414 806.0
1965.93414 803.0
1966.93414 826.0
1967.93414 814.0
1968.93414 805.0
1969.93414 794.0
1970.93414 809.0
1971.93414 796.0
1972.93414 802.0
1973.93414 808.0
1974.93414 796.0
1975.93414 809.0
1976.93414 820.0
1977.93414 802.0
1978.93414 800.0
1979.93414 808.0
1980.93414 797.0
1981.93414 807.0
1982.93414 798.0
1983.93414 789.0
1984.93414 798.0
1985.93414 798.0
1986.93414 807.0
1987.93414 809.0
1988.93414 800.0
1989.93414 824.0
1990.93414 807.0
1991.93414 805.0
1992.93414 800.0
1993.93414 805.0
1994.93414 800.0
1995.93414 791.0
1996.93414 793.0
1997.93414 797.0
1998.93414 804.0
1999.93414 804.0
2000.93414 786.0
2001.93414 792.0
2002.93414 804.0
2003.93414 812.0
2004.93414 806.0
2005.93414 797.0
2006.93414 812.0
2007.93414 809.0
2008.93414 798.0
2009.93414 785.0
2010.93414 801.0
2011.93414 800.0
2012.93414 809.0
2013.93414 777.0
2014.93414 798.0
2015.93414 796.0
2016.93414 797.0
2017.93414 808.0
2018.93414 793.0
2019.93414 806.0
2020.93414 804.0
2021.93414 809.0
2022.93414 807.0
2023.93414 806.0
2024.93414 813.0
2025.93414 796.0
2026.93414 804.0
2027.93414 807.0
2028.93414 808.0
2029.93414 785.0
2030.93414 798.0
2031.93414 798.0
2032.93414 794.0
2033.93414 801.0
2034.93414 805.0
2035.93414 815.0
2036.93414 804.0
2037.93414 820.0
2038.93414 801.0
2039.93414 799.0
2040.93414 808.0
2041.93414 798.0
2042.93414 805.0
2043.93414 798.0
2044.93414 809.0
2045.93414 816.0
2046.93414 802.0
2047.93414 790.0
2048.9341400000003 811.0
2049.9341400000003 816.0
2050.9341400000003 818.0
2051.9341400000003 800.0
2052.9341400000003 788.0
2053.9341400000003 800.0
2054.9341400000003 813.0
2055.9341400000003 787.0
2056.9341400000003 807.0
2057.9341400000003 809.0
2058.9341400000003 802.0
2059.9341400000003 825.0
2060.9341400000003 810.0
2061.9341400000003 806.0
2062.9341400000003 810.0
2063.9341400000003 809.0
2064.9341400000003 823.0
2065.9341400000003 814.0
2066.9341400000003 799.0
2067.9341400000003 790.0
2068.9341400000003 794.0
2069.9341400000003 808.0
2070.9341400000003 800.0
2071.9341400000003 791.0
2072.9341400000003 803.0
2073.9341400000003 792.0
2074.9341400000003 818.0
2075.9341400000003 801.0
2076.9341400000003 791.0
2077.9341400000003 813.0
2078.9341400000003 808.0
2079.9341400000003 799.0
2080.9341400000003 804.0
2081.9341400000003 821.0
2082.9341400000003 800.0
2083.9341400000003 811.0
2084.9341400000003 802.0
2085.9341400000003 822.0
2086.9341400000003 800.0
2087.9341400000003 805.0
2088.9341400000003 805.0
2089.9341400000003 807.0
2090.9341400000003 809.0
2091.9341400000003 786.0
2092.9341400000003 814.0
2093.9341400000003 793.0
2094.9341400000003 805.0
2095.9341400000003 792.0
2096.9341400000003 804.0
2097.9341400000003 808.0
2098.9341400000003 794.0
2099.9341400000003 810.0
2100.9341400000003 797.0
2101.9341400000003 796.0
2102.9341400000003 794.0
2103.9341400000003 811.0
2104.9341400000003 802.0
2105.9341400000003 803.0
2106.9341400000003 808.0
2107.9341400000003 805.0
2108.9341400000003 806.0
2109.9341400000003 803.0
2110.9341400000003 798.0
2111.9341400000003 789.0
2112.9341400000003 801.0
2113.9341400000003 813.0
2114.9341400000003 818.0
2115.9341400000003 829.0
2116.9341400000003 807.0
2117.9341400000003 816.0
2118.9341400000003 817.0
2119.9341400000003 790.0
2120.9341400000003 802.0
2121.9341400000003 786.0
2122.9341400000003 797.0
2123.9341400000003 805.0
2124.9341400000003 808.0
2125.9341400000003 785.0
2126.9341400000003 808.0
2127.9341400000003 800.0
2128.9341400000003 804.0
2129.9341400000003 800.0
2130.9341400000003 800.0
2131.9341400000003 799.0
2132.9341400000003 811.0
2133.9341400000003 808.0
2134.9341400000003 796.0
2135.9341400000003 786.0
2136.9341400000003 790.0
2137.9341400000003 796.0
2138.9341400000003 801.0
2139.9341400000003 807.0
2140.9341400000003 810.0
2141.9341400000003 793.0
2142.9341400000003 802.0
2143.9341400000003 813.0
2144.9341400000003 800.0
2145.9341400000003 795.0
2146.9341400000003 806.0
2147.9341400000003 789.0
2148.9341400000003 813.0
2149.9341400000003 808.0
2150.9341400000003 793.0
2151.9341400000003 801.0
2152.9341400000003 793.0
2153.9341400000003 818.0
2154.9341400000003 808.0
2155.9341400000003 806.0
2156.9341400000003 803.0
2157.9341400000003 798.0
2158.9341400000003 793.0
2159.9341400000003 809.0
2160.9341400000003 811.0
2161.9341400000003 814.0
2162.9341400000003 803.0
2163.9341400000003 810.0
2164.9341400000003 806.0
2165.9341400000003 800.0
2166.9341400000003 797.0
2167.9341400000003 816.0
2168.9341400000003 803.0
2169.9341400000003 794.0
2170.9341400000003 796.0
2171.9341400000003 811.0
2172.9341400000003 817.0
2173.9341400000003 805.0
2174.9341400000003 808.0
2175.9341400000003 809.0
2176.9341400000003 814.0
2177.9341400000003 795.0
2178.9341400000003 792.0
2179.9341400000003 805.0
2180.9341400000003 793.0
2181.9341400000003 800.0
2182.9341400000003 802.0
2183.9341400000003 802.0
2184.9341400000003 801.0
2185.9341400000003 808.0
2186.9341400000003 783.0
2187.9341400000003 791.0
2188.9341400000003 804.0
2189.9341400000003 805.0
2190.9341400000003 794.0
2191.9341400000003 794.0
2192.9341400000003 809.0
2193.9341400000003 821.0
2194.9341400000003 799.0
2195.9341400000003 805.0
2196.9341400000003 802.0
2197.9341400000003 793.0
2198.9341400000003 809.0
2199.9341400000003 811.0
2200.9341400000003 804.0
2201.9341400000003 799.0
2202.9341400000003 809.0
2203.9341400000003 790.0
2204.9341400000003 803.0
2205.9341400000003 802.0
2206.9341400000003 801.0
2207.9341400000003 815.0
2208.9341400000003 820.0
2209.9341400000003 799.0
2210.9341400000003 799.0
2211.9341400000003 798.0
2212.9341400000003 810.0
2213.9341400000003 787.0
2214.9341400000003 801.0
2215.9341400000003 797.0
2216.9341400000003 820.0
2217.9341400000003 786.0
2218.9341400000003 807.0
2219.9341400000003 805.0
2220.9341400000003 804.0
2221.9341400000003 818.0
2222.9341400000003 802.0
2223.9341400000003 808.0
2224.9341400000003 801.0
2225.9341400000003 786.0
2226.9341400000003 795.0
2227.9341400000003 778.0
2228.9341400000003 802.0
2229.9341400000003 796.0
2230.9341400000003 798.0
2231.9341400000003 804.0
2232.9341400000003 823.0
2233.9341400000003 791.0
2234.9341400000003 797.0
2235.9341400000003 798.0
2236.9341400000003 801.0
2237.9341400000003 801.0
2238.9341400000003 800.0
2239.9341400000003 794.0
2240.9341400000003 793.0
2241.9341400000003 809.0
2242.9341400000003 808.0
2243.9341400000003 804.0
2244.9341400000003 815.0
2245.9341400000003 802.0
2246.9341400000003 792.0
2247.9341400000003 796.0
2248.9341400000003 790.0
2249.9341400000003 805.0
2250.9341400000003 793.0
2251.9341400000003 802.0
2252.9341400000003 788.0
2253.9341400000003 801.0
2254.9341400000003 796.0
2255.9341400000003 805.0
2256.9341400000003 789.0
2257.9341400000003 805.0
2258.9341400000003 790.0
2259.9341400000003 808.0
2260.9341400000003 802.0
2261.9341400000003 808.0
2262.9341400000003 800.0
2263.9341400000003 786.0
2264.9341400000003 812.0
2265.9341400000003 807.0
2266.9341400000003 807.0
2267.9341400000003 803.0
2268.9341400000003 796.0
2269.9341400000003 818.0
2270.9341400000003 813.0
2271.9341400000003 813.0
2272.9341400000003 802.0
2273.9341400000003 804.0
2274.9341400000003 780.0
2275.9341400000003 783.0
2276.9341400000003 789.0
2277.9341400000003 804.0
2278.9341400000003 806.0
2279.9341400000003 807.0
2280.9341400000003 801.0
2281.9341400000003 797.0
2282.9341400000003 810.0
2283.9341400000003 800.0
2284.9341400000003 800.0
2285.9341400000003 800.0
2286.9341400000003 788.0
2287.9341400000003 803.0
2288.9341400000003 797.0
2289.9341400000003 820.0
2290.9341400000003 808.0
2291.9341400000003 799.0
2292.9341400000003 810.0
2293.9341400000003 799.0
2294.9341400000003 804.0
2295.9341400000003 803.0
2296.9341400000003 790.0
2297.9341400000003 812.0
2298.9341400000003 820.0
2299.9341400000003 808.0
2300.9341400000003 799.0
2301.9341400000003 797.0
2302.9341400000003 793.0
2303.9341400000003 798.0
2304.9341400000003 788.0
2305.9341400000003 817.0
2306.9341400000003 820.0
2307.9341400000003 814.0
2308.9341400000003 816.0
2309.9341400000003 826.0
2310.9341400000003 803.0
2311.9341400000003 810.0
2312.9341400000003 804.0
2313.9341400000003 814.0
2314.9341400000003 804.0
2315.9341400000003 784.0
2316.9341400000003 793.0
2317.9341400000003 809.0
2318.9341400000003 801.0
2319.9341400000003 814.0
2320.9341400000003 817.0
2321.9341400000003 803.0
2322.9341400000003 800.0
2323.9341400000003 803.0
2324.9341400000003 798.0
2325.9341400000003 802.0
2326.9341400000003 797.0
2327.9341400000003 800.0
2328.9341400000003 810.0
2329.9341400000003 800.0
2330.9341400000003 814.0
2331.9341400000003 809.0
2332.9341400000003 798.0
2333.9341400000003 796.0
2334.9341400000003 806.0
2335.9341400000003 802.0
2336.9341400000003 805.0
2337.9341400000003 790.0
2338.9341400000003 807.0
2339.9341400000003 794.0
2340.9341400000003 797.0
2341.9341400000003 806.0
2342.9341400000003 797.0
2343.9341400000003 799.0
2344.9341400000003 810.0
2345.9341400000003 811.0
2346.9341400000003 796.0
2347.9341400000003 788.0
2348.9341400000003 812.0
2349.9341400000003 801.0
2350.9341400000003 799.0
2351.9341400000003 806.0
2352.9341400000003 804.0
2353.9341400000003 798.0
2354.9341400000003 803.0
2355.9341400000003 819.0
2356.9341400000003 812.0
2357.9341400000003 795.0
2358.9341400000003 805.0
2359.9341400000003 793.0
2360.9341400000003 811.0
2361.9341400000003 804.0
2362.9341400000003 800.0
2363.9341400000003 809.0
2364.9341400000003 792.0
2365.9341400000003 812.0
2366.9341400000003 808.0
2367.9341400000003 778.0
2368.9341400000003 794.0
2369.9341400000003 783.0
2370.9341400000003 803.0
2371.9341400000003 803.0
2372.9341400000003 813.0
2373.9341400000003 806.0
2374.9341400000003 793.0
2375.9341400000003 811.0
2376.9341400000003 800.0
2377.9341400000003 819.0
2378.9341400000003 809.0
2379.9341400000003 796.0
2380.9341400000003 790.0
2381.9341400000003 795.0
2382.9341400000003 816.0
2383.9341400000003 813.0
2384.9341400000003 802.0
2385.9341400000003 808.0
2386.9341400000003 811.0
2387.9341400000003 814.0
2388.9341400000003 804.0
2389.9341400000003 792.0
2390.9341400000003 786.0
2391.9341400000003 789.0
2392.9341400000003 811.0
2393.9341400000003 796.0
2394.9341400000003 813.0
2395.9341400000003 801.0
2396.9341400000003 788.0
2397.9341400000003 803.0
2398.9341400000003 795.0
2399.9341400000003 808.0
2400.9341400000003 808.0
2401.9341400000003 796.0
2402.9341400000003 798.0
2403.9341400000003 798.0
2404.9341400000003 802.0
2405.9341400000003 787.0
2406.9341400000003 803.0
2407.9341400000003 796.0
2408.9341400000003 804.0
2409.9341400000003 815.0
2410.9341400000003 825.0
2411.9341400000003 805.0
2412.9341400000003 799.0
2413.9341400000003 802.0
2414.9341400000003 793.0
2415.9341400000003 800.0
2416.9341400000003 814.0
2417.9341400000003 813.0
2418.9341400000003 793.0
2419.9341400000003 801.0
2420.9341400000003 800.0
2421.9341400000003 791.0
2422.9341400000003 800.0
2423.9341400000003 792.0
2424.9341400000003 800.0
2425.9341400000003 794.0
2426.9341400000003 812.0
2427.9341400000003 809.0
2428.9341400000003 795.0
2429.9341400000003 795.0
2430.9341400000003 811.0
2431.9341400000003 798.0
2432.9341400000003 805.0
2433.9341400000003 800.0
2434.9341400000003 798.0
2435.9341400000003 803.0
2436.9341400000003 794.0
2437.9341400000003 811.0
2438.9341400000003 808.0
2439.9341400000003 799.0
2440.9341400000003 792.0
2441.9341400000003 798.0
2442.9341400000003 798.0
2443.9341400000003 799.0
2444.9341400000003 805.0
2445.9341400000003 810.0
2446.9341400000003 797.0
2447.9341400000003 809.0
2448.9341400000003 809.0
2449.9341400000003 806.0
2450.9341400000003 808.0
2451.9341400000003 817.0
2452.9341400000003 806.0
2453.9341400000003 800.0
2454.9341400000003 792.0
2455.9341400000003 805.0
2456.9341400000003 807.0
2457.9341400000003 803.0
2458.9341400000003 793.0
2459.9341400000003 805.0
2460.9341400000003 808.0
2461.9341400000003 800.0
2462.9341400000003 790.0
2463.9341400000003 811.0
2464.9341400000003 794.0
2465.9341400000003 796.0
2466.9341400000003 806.0
2467.9341400000003 808.0
2468.9341400000003 785.0
2469.9341400000003 802.0
2470.9341400000003 801.0
2471.9341400000003 804.0
2472.9341400000003 791.0
2473.9341400000003 782.0
2474.9341400000003 808.0
2475.9341400000003 801.0
2476.9341400000003 811.0
2477.9341400000003 798.0
2478.9341400000003 790.0
2479.9341400000003 812.0
2480.9341400000003 798.0
2481.9341400000003 805.0
2482.9341400000003 776.0
2483.9341400000003 784.0
2484.9341400000003 794.0
2485.9341400000003 802.0
2486.9341400000003 817.0
2487.9341400000003 799.0
2488.9341400000003 806.0
2489.9341400000003 803.0
2490.9341400000003 808.0
2491.9341400000003 818.0
2492.9341400000003 807.0
2493.9341400000003 801.0
2494.9341400000003 806.0
2495.9341400000003 801.0
2496.9341400000003 785.0
2497.9341400000003 807.0
2498.9341400000003 818.0
2499.9341400000003 800.0
2500.9341400000003 795.0
2501.9341400000003 806.0
2502.9341400000003 805.0
2503.9341400000003 822.0
2504.9341400000003 800.0
2505.9341400000003 797.0
2506.9341400000003 811.0
2507.9341400000003 800.0
2508.9341400000003 802.0
2509.9341400000003 795.0
2510.9341400000003 807.0
2511.9341400000003 797.0
2512.9341400000003 795.0
2513.9341400000003 799.0
2514.9341400000003 792.0
2515.9341400000003 797.0
2516.9341400000003 808.0
2517.9341400000003 803.0
2518.9341400000003 805.0
2519.9341400000003 812.0
2520.9341400000003 802.0
2521.9341400000003 808.0
2522.9341400000003 792.0
2523.9341400000003 804.0
2524.9341400000003 796.0
2525.9341400000003 800.0
2526.9341400000003 804.0
2527.9341400000003 811.0
2528.9341400000003 802.0
2529.9341400000003 809.0
2530.9341400000003 810.0
2531.9341400000003 812.0
2532.9341400000003 794.0
2533.9341400000003 822.0
2534.9341400000003 804.0
2535.9341400000003 786.0
2536.9341400000003 802.0
2537.9341400000003 813.0
2538.9341400000003 815.0
2539.9341400000003 811.0
2540.9341400000003 779.0
2541.9341400000003 797.0
2542.9341400000003 810.0
2543.9341400000003 799.0
2544.9341400000003 809.0
2545.9341400000003 806.0
2546.9341400000003 796.0
2547.9341400000003 793.0
2548.9341400000003 802.0
2549.9341400000003 809.0
2550.9341400000003 788.0
2551.9341400000003 813.0
2552.9341400000003 808.0
2553.9341400000003 805.0
2554.9341400000003 808.0
2555.9341400000003 802.0
2556.9341400000003 796.0
2557.9341400000003 796.0
2558.9341400000003 790.0
2559.9341400000003 800.0
2560.9341400000003 777.0
2561.9341400000003 814.0
2562.9341400000003 813.0
2563.9341400000003 805.0
2564.9341400000003 793.0
2565.9341400000003 799.0
2566.9341400000003 803.0
2567.9341400000003 795.0
2568.9341400000003 799.0
2569.9341400000003 798.0
2570.9341400000003 793.0
2571.9341400000003 803.0
2572.9341400000003 804.0
2573.9341400000003 808.0
2574.9341400000003 802.0
2575.9341400000003 780.0
2576.9341400000003 791.0
2577.9341400000003 804.0
2578.9341400000003 800.0
2579.9341400000003 797.0
2580.9341400000003 803.0
2581.9341400000003 782.0
2582.9341400000003 796.0
2583.9341400000003 806.0
2584.9341400000003 795.0
2585.9341400000003 797.0
2586.9341400000003 801.0
2587.9341400000003 801.0
2588.9341400000003 804.0
2589.9341400000003 804.0
2590.9341400000003 790.0
2591.9341400000003 799.0
2592.9341400000003 789.0
2593.9341400000003 799.0
2594.9341400000003 806.0
2595.9341400000003 798.0
2596.9341400000003 796.0
2597.9341400000003 803.0
2598.9341400000003 797.0
2599.9341400000003 794.0
2600.9341400000003 790.0
2601.9341400000003 811.0
2602.9341400000003 798.0
2603.9341400000003 796.0
2604.9341400000003 800.0
2605.9341400000003 786.0
2606.9341400000003 790.0
2607.9341400000003 796.0
2608.9341400000003 794.0
2609.9341400000003 803.0
2610.9341400000003 804.0
2611.9341400000003 814.0
2612.9341400000003 777.0
2613.9341400000003 801.0
2614.9341400000003 793.0
2615.9341400000003 788.0
2616.9341400000003 799.0
2617.9341400000003 818.0
2618.9341400000003 793.0
2619.9341400000003 806.0
2620.9341400000003 804.0
2621.9341400000003 804.0
2622.9341400000003 801.0
2623.9341400000003 794.0
2624.9341400000003 799.0
2625.9341400000003 801.0
2626.9341400000003 799.0
2627.9341400000003 801.0
2628.9341400000003 806.0
2629.9341400000003 796.0
2630.9341400000003 806.0
2631.9341400000003 812.0
2632.9341400000003 794.0
2633.9341400000003 786.0
2634.9341400000003 775.0
2635.9341400000003 782.0
2636.9341400000003 785.0
2637.9341400000003 807.0
2638.9341400000003 794.0
2639.9341400000003 792.0
2640.9341400000003 795.0
2641.9341400000003 800.0
2642.9341400000003 794.0
2643.9341400000003 797.0
2644.9341400000003 781.0
2645.9341400000003 788.0
2646.9341400000003 787.0
2647.9341400000003 802.0
2648.9341400000003 797.0
2649.9341400000003 802.0
2650.9341400000003 803.0
2651.9341400000003 807.0
2652.9341400000003 792.0
2653.9341400000003 814.0
2654.9341400000003 788.0
2655.9341400000003 796.0
2656.9341400000003 785.0
2657.9341400000003 799.0
2658.9341400000003 809.0
2659.9341400000003 786.0
2660.9341400000003 788.0
2661.9341400000003 789.0
2662.9341400000003 789.0
2663.9341400000003 794.0
2664.9341400000003 779.0
2665.9341400000003 808.0
2666.9341400000003 803.0
2667.9341400000003 807.0
2668.9341400000003 802.0
2669.9341400000003 810.0
2670.9341400000003 808.0
2671.9341400000003 794.0
2672.9341400000003 797.0
2673.9341400000003 788.0
2674.9341400000003 779.0
2675.9341400000003 791.0
2676.9341400000003 784.0
2677.9341400000003 807.0
2678.9341400000003 809.0
2679.9341400000003 798.0
2680.9341400000003 799.0
2681.9341400000003 798.0
2682.9341400000003 808.0
2683.9341400000003 789.0
2684.9341400000003 779.0
2685.9341400000003 785.0
2686.9341400000003 787.0
2687.9341400000003 792.0
2688.9341400000003 793.0
2689.9341400000003 787.0
2690.9341400000003 804.0
2691.9341400000003 796.0
2692.9341400000003 804.0
2693.9341400000003 793.0
2694.9341400000003 795.0
2695.9341400000003 802.0
2696.9341400000003 795.0
2697.9341400000003 798.0
2698.9341400000003 798.0
2699.9341400000003 795.0
2700.9341400000003 789.0
2701.9341400000003 797.0
2702.9341400000003 799.0
2703.9341400000003 797.0
2704.9341400000003 807.0
2705.9341400000003 803.0
2706.9341400000003 794.0
2707.9341400000003 796.0
2708.9341400000003 806.0
2709.9341400000003 793.0
2710.9341400000003 799.0
2711.9341400000003 785.0
2712.9341400000003 805.0
2713.9341400000003 796.0
2714.9341400000003 803.0
2715.9341400000003 804.0
2716.9341400000003 799.0
2717.9341400000003 808.0
2718.9341400000003 803.0
2719.9341400000003 795.0
2720.9341400000003 797.0
2721.9341400000003 813.0
2722.9341400000003 788.0
2723.9341400000003 798.0
2724.9341400000003 799.0
2725.9341400000003 786.0
2726.9341400000003 807.0
2727.9341400000003 799.0
2728.9341400000003 786.0
2729.9341400000003 794.0
2730.9341400000003 795.0
2731.9341400000003 811.0
2732.9341400000003 793.0
2733.9341400000003 781.0
2734.9341400000003 798.0
2735.9341400000003 785.0
2736.9341400000003 788.0
2737.9341400000003 783.0
2738.9341400000003 801.0
2739.9341400000003 804.0
2740.9341400000003 784.0
2741.9341400000003 790.0
2742.9341400000003 783.0
2743.9341400000003 801.0
2744.9341400000003 791.0
2745.9341400000003 789.0
2746.9341400000003 789.0
2747.9341400000003 798.0
2748.9341400000003 789.0
2749.9341400000003 794.0
2750.9341400000003 800.0
2751.9341400000003 799.0
2752.9341400000003 816.0
2753.9341400000003 803.0
2754.9341400000003 812.0
2755.9341400000003 786.0
2756.9341400000003 797.0
2757.9341400000003 791.0
2758.9341400000003 794.0
2759.9341400000003 796.0
2760.9341400000003 789.0
2761.9341400000003 798.0
2762.9341400000003 798.0
2763.9341400000003 794.0
2764.9341400000003 789.0
2765.9341400000003 802.0
2766.9341400000003 786.0
2767.9341400000003 805.0
2768.9341400000003 796.0
2769.9341400000003 799.0
2770.9341400000003 800.0
2771.9341400000003 798.0
2772.9341400000003 798.0
2773.9341400000003 787.0
2774.9341400000003 784.0
2775.9341400000003 795.0
2776.9341400000003 788.0
2777.9341400000003 803.0
2778.9341400000003 787.0
2779.9341400000003 788.0
2780.9341400000003 773.0
2781.9341400000003 805.0
2782.9341400000003 799.0
2783.9341400000003 778.0
2784.9341400000003 804.0
2785.9341400000003 794.0
2786.9341400000003 785.0
2787.9341400000003 790.0
2788.9341400000003 795.0
2789.9341400000003 803.0
2790.9341400000003 799.0
2791.9341400000003 779.0
2792.9341400000003 792.0
2793.9341400000003 791.0
2794.9341400000003 786.0
2795.9341400000003 785.0
2796.9341400000003 808.0
2797.9341400000003 782.0
2798.9341400000003 795.0
2799.9341400000003 793.0
2800.9341400000003 796.0
2801.9341400000003 805.0
2802.9341400000003 801.0
2803.9341400000003 786.0
2804.9341400000003 788.0
2805.9341400000003 792.0
2806.9341400000003 793.0
2807.9341400000003 794.0
2808.9341400000003 803.0
2809.9341400000003 801.0
2810.9341400000003 795.0
2811.9341400000003 785.0
2812.9341400000003 809.0
2813.9341400000003 797.0
2814.9341400000003 802.0
2815.9341400000003 802.0
2816.9341400000003 798.0
2817.9341400000003 797.0
2818.9341400000003 798.0
2819.9341400000003 793.0
2820.9341400000003 796.0
2821.9341400000003 794.0
2822.9341400000003 797.0
2823.9341400000003 787.0
2824.9341400000003 810.0
2825.9341400000003 785.0
2826.9341400000003 792.0
2827.9341400000003 807.0
2828.9341400000003 798.0
2829.9341400000003 803.0
2830.9341400000003 801.0
2831.9341400000003 805.0
2832.9341400000003 795.0
2833.9341400000003 806.0
2834.9341400000003 793.0
2835.9341400000003 789.0
2836.9341400000003 806.0
2837.9341400000003 790.0
2838.9341400000003 795.0
2839.9341400000003 802.0
2840.9341400000003 803.0
2841.9341400000003 796.0
2842.9341400000003 804.0
2843.9341400000003 800.0
2844.9341400000003 788.0
2845.9341400000003 793.0
2846.9341400000003 802.0
2847.9341400000003 800.0
2848.9341400000003 798.0
2849.9341400000003 793.0
2850.9341400000003 795.0
2851.9341400000003 798.0
2852.9341400000003 795.0
2853.9341400000003 791.0
2854.9341400000003 813.0
2855.9341400000003 793.0
2856.9341400000003 791.0
2857.9341400000003 796.0
2858.9341400000003 805.0
2859.9341400000003 787.0
2860.9341400000003 798.0
2861.9341400000003 796.0
2862.9341400000003 796.0
2863.9341400000003 791.0
2864.9341400000003 796.0
2865.9341400000003 805.0
2866.9341400000003 799.0
2867.9341400000003 793.0
2868.9341400000003 785.0
2869.9341400000003 782.0
2870.9341400000003 789.0
2871.9341400000003 808.0
2872.9341400000003 787.0
2873.9341400000003 776.0
2874.9341400000003 793.0
2875.9341400000003 793.0
2876.9341400000003 789.0
2877.9341400000003 781.0
2878.9341400000003 806.0
2879.9341400000003 797.0
2880.9341400000003 793.0
2881.9341400000003 794.0
2882.9341400000003 792.0
2883.9341400000003 796.0
2884.9341400000003 799.0
2885.9341400000003 802.0
2886.9341400000003 797.0
2887.9341400000003 801.0
2888.9341400000003 792.0
2889.9341400000003 784.0
2890.9341400000003 785.0
2891.9341400000003 777.0
2892.9341400000003 798.0
2893.9341400000003 798.0
2894.9341400000003 800.0
2895.9341400000003 792.0
2896.9341400000003 790.0
2897.9341400000003 808.0
2898.9341400000003 816.0
2899.9341400000003 797.0
2900.9341400000003 796.0
2901.9341400000003 777.0
2902.9341400000003 804.0
2903.9341400000003 805.0
2904.9341400000003 799.0
2905.9341400000003 807.0
2906.9341400000003 782.0
2907.9341400000003 795.0
2908.9341400000003 792.0
2909.9341400000003 798.0
2910.9341400000003 778.0
2911.9341400000003 808.0
2912.9341400000003 806.0
2913.9341400000003 800.0
2914.9341400000003 795.0
2915.9341400000003 789.0
2916.9341400000003 795.0
2917.9341400000003 779.0
2918.9341400000003 809.0
2919.9341400000003 788.0
2920.9341400000003 792.0
2921.9341400000003 782.0
2922.9341400000003 782.0
2923.9341400000003 796.0
2924.9341400000003 801.0
2925.9341400000003 796.0
2926.9341400000003 791.0
2927.9341400000003 802.0
2928.9341400000003 799.0
2929.9341400000003 813.0
2930.9341400000003 808.0
2931.9341400000003 788.0
2932.9341400000003 796.0
2933.9341400000003 801.0
2934.9341400000003 803.0
2935.9341400000003 814.0
2936.9341400000003 796.0
2937.9341400000003 776.0
2938.9341400000003 787.0
2939.9341400000003 783.0
2940.9341400000003 778.0
2941.9341400000003 798.0
2942.9341400000003 801.0
2943.9341400000003 799.0
2944.9341400000003 790.0
2945.9341400000003 796.0
2946.9341400000003 797.0
2947.9341400000003 809.0
2948.9341400000003 786.0
2949.9341400000003 793.0
2950.9341400000003 803.0
2951.9341400000003 808.0
2952.9341400000003 798.0
2953.9341400000003 791.0
2954.9341400000003 803.0
2955.9341400000003 787.0
2956.9341400000003 792.0
2957.9341400000003 794.0
2958.9341400000003 804.0
2959.9341400000003 796.0
2960.9341400000003 781.0
2961.9341400000003 790.0
2962.9341400000003 789.0
2963.9341400000003 795.0
2964.9341400000003 794.0
2965.9341400000003 796.0
2966.9341400000003 805.0
2967.9341400000003 809.0
2968.9341400000003 782.0
2969.9341400000003 798.0
2970.9341400000003 801.0
2971.9341400000003 784.0
2972.9341400000003 786.0
2973.9341400000003 799.0
2974.9341400000003 796.0
2975.9341400000003 782.0
2976.9341400000003 796.0
2977.9341400000003 785.0
2978.9341400000003 794.0
2979.9341400000003 799.0
2980.9341400000003 802.0
2981.9341400000003 785.0
2982.9341400000003 806.0
2983.9341400000003 783.0
2984.9341400000003 806.0
2985.9341400000003 802.0
2986.9341400000003 796.0
2987.9341400000003 798.0
2988.9341400000003 807.0
2989.9341400000003 793.0
2990.9341400000003 794.0
2991.9341400000003 814.0
2992.9341400000003 799.0
2993.9341400000003 782.0
2994.9341400000003 777.0
2995.9341400000003 798.0
2996.9341400000003 794.0
2997.9341400000003 797.0
2998.9341400000003 811.0
2999.9341400000003 798.0
3000.9341400000003 795.0
3001.9341400000003 804.0
3002.9341400000003 791.0
3003.9341400000003 793.0
3004.9341400000003 802.0
3005.9341400000003 800.0
3006.9341400000003 796.0
3007.9341400000003 800.0
3008.9341400000003 771.0
3009.9341400000003 783.0
3010.9341400000003 788.0
3011.9341400000003 788.0
3012.9341400000003 800.0
3013.9341400000003 809.0
3014.9341400000003 792.0
3015.9341400000003 788.0
3016.9341400000003 788.0
3017.9341400000003 793.0
3018.9341400000003 794.0
3019.9341400000003 791.0
3020.9341400000003 794.0
3021.9341400000003 792.0
3022.9341400000003 792.0
3023.9341400000003 814.0
3024.9341400000003 798.0
3025.9341400000003 789.0
3026.9341400000003 799.0
3027.9341400000003 802.0
3028.9341400000003 807.0
3029.9341400000003 787.0
3030.9341400000003 807.0
3031.9341400000003 791.0
3032.9341400000003 786.0
3033.9341400000003 784.0
3034.9341400000003 785.0
3035.9341400000003 793.0
3036.9341400000003 799.0
3037.9341400000003 793.0
3038.9341400000003 776.0
3039.9341400000003 798.0
3040.9341400000003 787.0
3041.9341400000003 799.0
3042.9341400000003 784.0
3043.9341400000003 802.0
3044.9341400000003 801.0
3045.9341400000003 807.0
3046.9341400000003 798.0
3047.9341400000003 796.0
3048.9341400000003 790.0
3049.9341400000003 785.0
3050.9341400000003 793.0
3051.9341400000003 798.0
3052.9341400000003 801.0
3053.9341400000003 793.0
3054.9341400000003 801.0
3055.9341400000003 814.0
3056.9341400000003 797.0
3057.9341400000003 789.0
3058.9341400000003 798.0
3059.9341400000003 794.0
3060.9341400000003 772.0
3061.9341400000003 782.0
3062.9341400000003 787.0
3063.9341400000003 803.0
3064.9341400000003 796.0
3065.9341400000003 783.0
3066.9341400000003 798.0
3067.9341400000003 793.0
3068.9341400000003 795.0
3069.9341400000003 790.0
3070.9341400000003 795.0
3071.9341400000003 796.0
3072.9341400000003 799.0
3073.9341400000003 796.0
3074.9341400000003 798.0
3075.9341400000003 801.0
3076.9341400000003 798.0
3077.9341400000003 796.0
3078.9341400000003 811.0
3079.9341400000003 801.0
3080.9341400000003 794.0
3081.9341400000003 800.0
3082.9341400000003 781.0
3083.9341400000003 786.0
3084.9341400000003 801.0
3085.9341400000003 798.0
3086.9341400000003 792.0
3087.9341400000003 800.0
3088.9341400000003 798.0
3089.9341400000003 802.0
3090.9341400000003 793.0
3091.9341400000003 805.0
3092.9341400000003 802.0
3093.9341400000003 804.0
3094.9341400000003 790.0
3095.9341400000003 788.0
3096.9341400000003 787.0
3097.9341400000003 793.0
3098.9341400000003 793.0
3099.9341400000003 799.0
3100.9341400000003 794.0
3101.9341400000003 809.0
3102.9341400000003 807.0
3103.9341400000003 799.0
3104.9341400000003 806.0
3105.9341400000003 782.0
3106.9341400000003 792.0
3107.9341400000003 794.0
3108.9341400000003 788.0
3109.9341400000003 789.0
3110.9341400000003 789.0
3111.9341400000003 788.0
3112.9341400000003 799.0
3113.9341400000003 795.0
3114.9341400000003 793.0
3115.9341400000003 792.0
3116.9341400000003 794.0
3117.9341400000003 804.0
3118.9341400000003 788.0
3119.9341400000003 810.0
3120.9341400000003 797.0
3121.9341400000003 795.0
3122.9341400000003 790.0
3123.9341400000003 804.0
3124.9341400000003 795.0
3125.9341400000003 810.0
3126.9341400000003 786.0
3127.9341400000003 797.0
3128.9341400000003 792.0
3129.9341400000003 786.0
3130.9341400000003 809.0
3131.9341400000003 803.0
3132.9341400000003 811.0
3133.9341400000003 793.0
3134.9341400000003 806.0
3135.9341400000003 796.0
3136.9341400000003 803.0
3137.9341400000003 786.0
3138.9341400000003 808.0
3139.9341400000003 804.0
3140.9341400000003 797.0
3141.9341400000003 791.0
3142.9341400000003 799.0
3143.9341400000003 796.0
3144.9341400000003 809.0
3145.9341400000003 792.0
3146.9341400000003 797.0
3147.9341400000003 818.0
3148.9341400000003 798.0
3149.9341400000003 790.0
3150.9341400000003 795.0
3151.9341400000003 789.0
3152.9341400000003 798.0
3153.9341400000003 785.0
3154.9341400000003 789.0
3155.9341400000003 791.0
3156.9341400000003 803.0
3157.9341400000003 784.0
3158.9341400000003 799.0
3159.9341400000003 790.0
3160.9341400000003 795.0
3161.9341400000003 804.0
3162.9341400000003 806.0
3163.9341400000003 789.0
3164.9341400000003 790.0
3165.9341400000003 793.0
3166.9341400000003 784.0
3167.9341400000003 809.0
3168.9341400000003 806.0
3169.9341400000003 795.0
3170.9341400000003 789.0
3171.9341400000003 799.0
3172.9341400000003 798.0
3173.9341400000003 792.0
3174.9341400000003 781.0
3175.9341400000003 795.0
3176.9341400000003 809.0
3177.9341400000003 806.0
3178.9341400000003 786.0
3179.9341400000003 814.0
3180.9341400000003 805.0
3181.9341400000003 793.0
3182.9341400000003 785.0
3183.9341400000003 796.0
3184.9341400000003 790.0
3185.9341400000003 786.0
3186.9341400000003 797.0
3187.9341400000003 786.0
3188.9341400000003 787.0
3189.9341400000003 790.0
3190.9341400000003 788.0
3191.9341400000003 799.0
3192.9341400000003 781.0
3193.9341400000003 802.0
3194.9341400000003 804.0
3195.9341400000003 796.0
3196.9341400000003 783.0
3197.9341400000003 796.0
3198.9341400000003 809.0
3199.9341400000003 794.0
3200.9341400000003 794.0
3201.9341400000003 798.0
3202.9341400000003 798.0
3203.9341400000003 794.0
3204.9341400000003 804.0
3205.9341400000003 793.0
3206.9341400000003 788.0
3207.9341400000003 792.0
3208.9341400000003 793.0
3209.9341400000003 812.0
3210.9341400000003 802.0
3211.9341400000003 805.0
3212.9341400000003 801.0
3213.9341400000003 796.0
3214.9341400000003 784.0
3215.9341400000003 801.0
3216.9341400000003 800.0
3217.9341400000003 798.0
3218.9341400000003 781.0
3219.9341400000003 805.0
3220.9341400000003 817.0
3221.9341400000003 801.0
3222.9341400000003 779.0
3223.9341400000003 786.0
3224.9341400000003 794.0
3225.9341400000003 804.0
3226.9341400000003 792.0
3227.9341400000003 792.0
3228.9341400000003 790.0
3229.9341400000003 803.0
3230.9341400000003 794.0
3231.9341400000003 802.0
3232.9341400000003 798.0
3233.9341400000003 794.0
3234.9341400000003 786.0
3235.9341400000003 789.0
3236.9341400000003 796.0
3237.9341400000003 796.0
3238.9341400000003 796.0
3239.9341400000003 774.0
3240.9341400000003 790.0
3241.9341400000003 784.0
3242.9341400000003 806.0
3243.9341400000003 794.0
3244.9341400000003 778.0
3245.9341400000003 791.0
3246.9341400000003 790.0
3247.9341400000003 814.0
3248.9341400000003 805.0
3249.9341400000003 808.0
3250.9341400000003 798.0
3251.9341400000003 785.0
3252.9341400000003 803.0
3253.9341400000003 807.0
3254.9341400000003 802.0
3255.9341400000003 778.0
3256.9341400000003 808.0
3257.9341400000003 802.0
3258.9341400000003 796.0
3259.9341400000003 802.0
3260.9341400000003 792.0
3261.9341400000003 798.0
3262.9341400000003 789.0
3263.9341400000003 797.0
3264.9341400000003 790.0
3265.9341400000003 797.0
3266.9341400000003 791.0
3267.9341400000003 808.0
3268.9341400000003 816.0
3269.9341400000003 805.0
3270.9341400000003 799.0
3271.9341400000003 801.0
3272.9341400000003 800.0
3273.9341400000003 810.0
3274.9341400000003 807.0
3275.9341400000003 796.0
3276.9341400000003 796.0
3277.9341400000003 786.0
3278.9341400000003 798.0
3279.9341400000003 803.0
3280.9341400000003 789.0
3281.9341400000003 802.0
3282.9341400000003 794.0
3283.9341400000003 795.0
3284.9341400000003 791.0
3285.9341400000003 790.0
3286.9341400000003 814.0
3287.9341400000003 803.0
3288.9341400000003 797.0
3289.9341400000003 796.0
3290.9341400000003 800.0
3291.9341400000003 807.0
3292.9341400000003 811.0
3293.9341400000003 794.0
3294.9341400000003 796.0
3295.9341400000003 800.0
3296.9341400000003 800.0
3297.9341400000003 797.0
3298.9341400000003 800.0
3299.9341400000003 790.0
3300.9341400000003 800.0
3301.9341400000003 797.0
3302.9341400000003 810.0
3303.9341400000003 792.0
3304.9341400000003 798.0
3305.9341400000003 804.0
3306.9341400000003 798.0
3307.9341400000003 797.0
3308.9341400000003 784.0
3309.9341400000003 795.0
3310.9341400000003 800.0
3311.9341400000003 803.0
3312.9341400000003 787.0
3313.9341400000003 795.0
3314.9341400000003 782.0
3315.9341400000003 797.0
3316.9341400000003 803.0
3317.9341400000003 799.0
3318.9341400000003 801.0
3319.9341400000003 800.0
3320.9341400000003 782.0
3321.9341400000003 797.0
3322.9341400000003 794.0
3323.9341400000003 794.0
3324.9341400000003 795.0
3325.9341400000003 794.0
3326.9341400000003 794.0
3327.9341400000003 801.0
3328.9341400000003 800.0
3329.9341400000003 796.0
3330.9341400000003 797.0
3331.9341400000003 796.0
3332.9341400000003 790.0
3333.9341400000003 803.0
3334.9341400000003 799.0
3335.9341400000003 793.0
3336.9341400000003 797.0
3337.9341400000003 809.0
3338.9341400000003 799.0
3339.9341400000003 797.0
3340.9341400000003 798.0
3341.9341400000003 803.0
3342.9341400000003 809.0
3343.9341400000003 791.0
3344.9341400000003 790.0
3345.9341400000003 798.0
3346.9341400000003 799.0
3347.9341400000003 794.0
3348.9341400000003 802.0
3349.9341400000003 806.0
3350.9341400000003 807.0
3351.9341400000003 809.0
3352.9341400000003 788.0
3353.9341400000003 800.0
3354.9341400000003 813.0
3355.9341400000003 810.0
3356.9341400000003 805.0
3357.9341400000003 792.0
3358.9341400000003 805.0
3359.9341400000003 774.0
3360.9341400000003 785.0
3361.9341400000003 786.0
3362.9341400000003 806.0
3363.9341400000003 812.0
3364.9341400000003 808.0
3365.9341400000003 785.0
3366.9341400000003 811.0
3367.9341400000003 790.0
3368.9341400000003 797.0
3369.9341400000003 797.0
3370.9341400000003 801.0
3371.9341400000003 802.0
3372.9341400000003 804.0
3373.9341400000003 799.0
3374.9341400000003 797.0
3375.9341400000003 789.0
3376.9341400000003 801.0
3377.9341400000003 800.0
3378.9341400000003 796.0
3379.9341400000003 814.0
3380.9341400000003 798.0
3381.9341400000003 805.0
3382.9341400000003 798.0
3383.9341400000003 793.0
3384.9341400000003 788.0
3385.9341400000003 790.0
3386.9341400000003 795.0
3387.9341400000003 801.0
3388.9341400000003 789.0
3389.9341400000003 805.0
3390.9341400000003 800.0
3391.9341400000003 799.0
3392.9341400000003 782.0
3393.9341400000003 793.0
3394.9341400000003 798.0
3395.9341400000003 794.0
3396.9341400000003 818.0
3397.9341400000003 778.0
3398.9341400000003 789.0
3399.9341400000003 793.0
3400.9341400000003 812.0
3401.9341400000003 800.0
3402.9341400000003 796.0
3403.9341400000003 794.0
3404.9341400000003 809.0
3405.9341400000003 793.0
3406.9341400000003 802.0
3407.9341400000003 813.0
3408.9341400000003 794.0
3409.9341400000003 785.0
3410.9341400000003 795.0
3411.9341400000003 787.0
3412.9341400000003 790.0
3413.9341400000003 776.0
3414.9341400000003 790.0
3415.9341400000003 805.0
3416.9341400000003 788.0
3417.9341400000003 800.0
3418.9341400000003 804.0
3419.9341400000003 802.0
3420.9341400000003 800.0
3421.9341400000003 798.0
3422.9341400000003 792.0
3423.9341400000003 798.0
3424.9341400000003 803.0
3425.9341400000003 819.0
3426.9341400000003 790.0
3427.9341400000003 793.0
3428.9341400000003 781.0
3429.9341400000003 792.0
3430.9341400000003 797.0
3431.9341400000003 795.0
3432.9341400000003 795.0
3433.9341400000003 803.0
3434.9341400000003 813.0
3435.9341400000003 797.0
3436.9341400000003 801.0
3437.9341400000003 799.0
3438.9341400000003 797.0
3439.9341400000003 798.0
3440.9341400000003 810.0
3441.9341400000003 808.0
3442.9341400000003 796.0
3443.9341400000003 801.0
3444.9341400000003 797.0
3445.9341400000003 789.0
3446.9341400000003 793.0
3447.9341400000003 793.0
3448.9341400000003 793.0
3449.9341400000003 800.0
3450.9341400000003 784.0
3451.9341400000003 804.0
3452.9341400000003 803.0
3453.9341400000003 789.0
3454.9341400000003 799.0
3455.9341400000003 782.0
3456.9341400000003 786.0
3457.9341400000003 813.0
3458.9341400000003 799.0
3459.9341400000003 788.0
3460.9341400000003 796.0
3461.9341400000003 796.0
3462.9341400000003 790.0
3463.9341400000003 812.0
3464.9341400000003 802.0
3465.9341400000003 799.0
3466.9341400000003 788.0
3467.9341400000003 777.0
3468.9341400000003 802.0
3469.9341400000003 785.0
3470.9341400000003 802.0
3471.9341400000003 794.0
3472.9341400000003 794.0
3473.9341400000003 786.0
3474.9341400000003 790.0
3475.9341400000003 793.0
3476.9341400000003 798.0
3477.9341400000003 806.0
3478.9341400000003 809.0
3479.9341400000003 787.0
3480.9341400000003 800.0
3481.9341400000003 805.0
3482.9341400000003 777.0
3483.9341400000003 792.0
3484.9341400000003 801.0
3485.9341400000003 800.0
3486.9341400000003 803.0
3487.9341400000003 818.0
3488.9341400000003 805.0
3489.9341400000003 804.0
3490.9341400000003 793.0
3491.9341400000003 794.0
3492.9341400000003 805.0
3493.9341400000003 798.0
3494.9341400000003 790.0
3495.9341400000003 791.0
3496.9341400000003 800.0
3497.9341400000003 782.0
3498.9341400000003 786.0
3499.9341400000003 796.0
3500.9341400000003 793.0
3501.9341400000003 793.0
3502.9341400000003 801.0
3503.9341400000003 780.0
3504.9341400000003 792.0
3505.9341400000003 801.0
3506.9341400000003 796.0
3507.9341400000003 803.0
3508.9341400000003 804.0
3509.9341400000003 790.0
3510.9341400000003 795.0
3511.9341400000003 788.0
3512.9341400000003 800.0
3513.9341400000003 777.0
3514.9341400000003 785.0
3515.9341400000003 796.0
3516.9341400000003 794.0
3517.9341400000003 816.0
3518.9341400000003 810.0
3519.9341400000003 787.0
3520.9341400000003 802.0
3521.9341400000003 790.0
3522.9341400000003 784.0
3523.9341400000003 794.0
3524.9341400000003 791.0
3525.9341400000003 791.0
3526.9341400000003 788.0
3527.9341400000003 790.0
3528.9341400000003 798.0
3529.9341400000003 792.0
3530.9341400000003 801.0
3531.9341400000003 800.0
3532.9341400000003 795.0
3533.9341400000003 807.0
3534.9341400000003 805.0
3535.9341400000003 799.0
3536.9341400000003 789.0
3537.9341400000003 794.0
3538.9341400000003 797.0
3539.9341400000003 791.0
3540.9341400000003 776.0
3541.9341400000003 799.0
3542.9341400000003 787.0
3543.9341400000003 793.0
3544.9341400000003 802.0
3545.9341400000003 793.0
3546.9341400000003 776.0
3547.9341400000003 786.0
3548.9341400000003 797.0
3549.9341400000003 793.0
3550.9341400000003 798.0
3551.9341400000003 802.0
3552.9341400000003 793.0
3553.9341400000003 785.0
3554.9341400000003 797.0
3555.9341400000003 792.0
3556.9341400000003 790.0
3557.9341400000003 788.0
3558.9341400000003 794.0
3559.9341400000003 802.0
3560.9341400000003 800.0
3561.9341400000003 795.0
3562.9341400000003 796.0
3563.9341400000003 796.0
3564.9341400000003 781.0
3565.9341400000003 794.0
3566.9341400000003 799.0
3567.9341400000003 798.0
3568.9341400000003 792.0
3569.9341400000003 794.0
3570.9341400000003 797.0
3571.9341400000003 794.0
3572.9341400000003 789.0
3573.9341400000003 785.0
3574.9341400000003 805.0
3575.9341400000003 796.0
3576.9341400000003 803.0
3577.9341400000003 789.0
3578.9341400000003 795.0
3579.9341400000003 804.0
3580.9341400000003 791.0
3581.9341400000003 800.0
3582.9341400000003 791.0
3583.9341400000003 802.0
3584.9341400000003 793.0
3585.9341400000003 804.0
3586.9341400000003 798.0
3587.9341400000003 793.0
3588.9341400000003 786.0
3589.9341400000003 803.0
3590.9341400000003 793.0
3591.9341400000003 794.0
3592.9341400000003 801.0
3593.9341400000003 801.0
3594.9341400000003 796.0
3595.9341400000003 789.0
3596.9341400000003 784.0
3597.9341400000003 780.0
3598.9341400000003 796.0
3599.9341400000003 806.0
3600.9341400000003 794.0
3601.9341400000003 786.0
3602.9341400000003 785.0
3603.9341400000003 789.0
3604.9341400000003 802.0
3605.9341400000003 799.0
3606.9341400000003 801.0
3607.9341400000003 797.0
3608.9341400000003 804.0
3609.9341400000003 797.0
3610.9341400000003 805.0
3611.9341400000003 797.0
3612.9341400000003 795.0
3613.9341400000003 798.0
3614.9341400000003 790.0
3615.9341400000003 794.0
3616.9341400000003 796.0
3617.9341400000003 781.0
3618.9341400000003 786.0
3619.9341400000003 800.0
3620.9341400000003 799.0
3621.9341400000003 799.0
3622.9341400000003 794.0
3623.9341400000003 797.0
3624.9341400000003 811.0
3625.9341400000003 788.0
3626.9341400000003 794.0
3627.9341400000003 786.0
3628.9341400000003 797.0
3629.9341400000003 812.0
3630.9341400000003 790.0
3631.9341400000003 790.0
3632.9341400000003 791.0
3633.9341400000003 788.0
3634.9341400000003 792.0
3635.9341400000003 782.0
3636.9341400000003 792.0
3637.9341400000003 799.0
3638.9341400000003 805.0
3639.9341400000003 794.0
3640.9341400000003 791.0
3641.9341400000003 795.0
3642.9341400000003 783.0
3643.9341400000003 796.0
3644.9341400000003 791.0
3645.9341400000003 785.0
3646.9341400000003 785.0
3647.9341400000003 805.0
3648.9341400000003 800.0
3649.9341400000003 801.0
3650.9341400000003 802.0
3651.9341400000003 780.0
3652.9341400000003 787.0
3653.9341400000003 798.0
3654.9341400000003 792.0
3655.9341400000003 798.0
3656.9341400000003 790.0
3657.9341400000003 786.0
3658.9341400000003 798.0
3659.9341400000003 797.0
3660.9341400000003 795.0
3661.9341400000003 801.0
3662.9341400000003 806.0
3663.9341400000003 797.0
3664.9341400000003 785.0
3665.9341400000003 801.0
3666.9341400000003 797.0
3667.9341400000003 790.0
3668.9341400000003 798.0
3669.9341400000003 791.0
3670.9341400000003 789.0
3671.9341400000003 788.0
3672.9341400000003 791.0
3673.9341400000003 789.0
3674.9341400000003 790.0
3675.9341400000003 798.0
3676.9341400000003 783.0
3677.9341400000003 791.0
3678.9341400000003 792.0
3679.9341400000003 802.0
3680.9341400000003 796.0
3681.9341400000003 789.0
3682.9341400000003 792.0
3683.9341400000003 784.0
3684.9341400000003 798.0
3685.9341400000003 795.0
3686.9341400000003 794.0
3687.9341400000003 805.0
3688.9341400000003 802.0
3689.9341400000003 789.0
3690.9341400000003 779.0
3691.9341400000003 787.0
3692.9341400000003 814.0
3693.9341400000003 782.0
3694.9341400000003 792.0
3695.9341400000003 783.0
3696.9341400000003 805.0
3697.9341400000003 797.0
3698.9341400000003 795.0
3699.9341400000003 791.0
3700.9341400000003 782.0
3701.9341400000003 789.0
3702.9341400000003 794.0
3703.9341400000003 778.0
3704.9341400000003 786.0
3705.9341400000003 776.0
3706.9341400000003 794.0
3707.9341400000003 784.0
3708.9341400000003 793.0
3709.9341400000003 818.0
3710.9341400000003 808.0
3711.9341400000003 791.0
3712.9341400000003 790.0
3713.9341400000003 786.0
3714.9341400000003 810.0
3715.9341400000003 790.0
3716.9341400000003 799.0
3717.9341400000003 789.0
3718.9341400000003 799.0
3719.9341400000003 797.0
3720.9341400000003 788.0
3721.9341400000003 781.0
3722.9341400000003 789.0
3723.9341400000003 786.0
3724.9341400000003 791.0
3725.9341400000003 793.0
3726.9341400000003 795.0
3727.9341400000003 791.0
3728.9341400000003 792.0
3729.9341400000003 809.0
3730.9341400000003 798.0
3731.9341400000003 801.0
3732.9341400000003 787.0
3733.9341400000003 784.0
3734.9341400000003 794.0
3735.9341400000003 801.0
3736.9341400000003 783.0
3737.9341400000003 787.0
3738.9341400000003 788.0
3739.9341400000003 792.0
3740.9341400000003 788.0
3741.9341400000003 780.0
3742.9341400000003 796.0
3743.9341400000003 804.0
3744.9341400000003 793.0
3745.9341400000003 794.0
3746.9341400000003 780.0
3747.9341400000003 804.0
3748.9341400000003 797.0
3749.9341400000003 806.0
3750.9341400000003 788.0
3751.9341400000003 777.0
3752.9341400000003 787.0
3753.9341400000003 773.0
3754.9341400000003 779.0
3755.9341400000003 794.0
3756.9341400000003 798.0
3757.9341400000003 780.0
3758.9341400000003 796.0
3759.9341400000003 794.0
3760.9341400000003 786.0
3761.9341400000003 792.0
3762.9341400000003 814.0
3763.9341400000003 802.0
3764.9341400000003 793.0
3765.9341400000003 782.0
3766.9341400000003 788.0
3767.9341400000003 781.0
3768.9341400000003 804.0
3769.9341400000003 797.0
3770.9341400000003 792.0
3771.9341400000003 789.0
3772.9341400000003 797.0
3773.9341400000003 788.0
3774.9341400000003 791.0
3775.9341400000003 801.0
3776.9341400000003 799.0
3777.9341400000003 787.0
3778.9341400000003 796.0
3779.9341400000003 782.0
3780.9341400000003 796.0
3781.9341400000003 786.0
3782.9341400000003 798.0
3783.9341400000003 798.0
3784.9341400000003 795.0
3785.9341400000003 789.0
3786.9341400000003 798.0
3787.9341400000003 792.0
3788.9341400000003 795.0
3789.9341400000003 809.0
3790.9341400000003 784.0
3791.9341400000003 787.0
3792.9341400000003 789.0
3793.9341400000003 793.0
3794.9341400000003 784.0
3795.9341400000003 785.0
3796.9341400000003 790.0
3797.9341400000003 778.0
3798.9341400000003 803.0
3799.9341400000003 802.0
3800.9341400000003 809.0
3801.9341400000003 791.0
3802.9341400000003 804.0
3803.9341400000003 791.0
3804.9341400000003 782.0
3805.9341400000003 800.0
3806.9341400000003 787.0
3807.9341400000003 785.0
3808.9341400000003 796.0
3809.9341400000003 798.0
3810.9341400000003 802.0
3811.9341400000003 790.0
3812.9341400000003 797.0
3813.9341400000003 785.0
3814.9341400000003 802.0
3815.9341400000003 784.0
3816.9341400000003 788.0
3817.9341400000003 780.0
3818.9341400000003 787.0
3819.9341400000003 796.0
3820.9341400000003 799.0
3821.9341400000003 787.0
3822.9341400000003 805.0
3823.9341400000003 788.0
3824.9341400000003 789.0
3825.9341400000003 791.0
3826.9341400000003 790.0
3827.9341400000003 791.0
3828.9341400000003 793.0
3829.9341400000003 797.0
3830.9341400000003 784.0
3831.9341400000003 792.0
3832.9341400000003 796.0
3833.9341400000003 797.0
3834.9341400000003 792.0
3835.9341400000003 798.0
3836.9341400000003 800.0
3837.9341400000003 794.0
3838.9341400000003 800.0
3839.9341400000003 786.0
3840.9341400000003 790.0
3841.9341400000003 794.0
